Time(s),Position(V)
0.357000,-0.597737
3.373000,-0.542126
6.373000,-0.572445
9.373000,-0.582151
12.373000,-0.567843
15.373000,-0.572235
18.373000,-0.546191
21.372000,-0.532522
24.372000,-0.527722
27.372000,-0.493714
30.372000,-0.472267
33.372000,-0.467528
36.370000,-0.446448
39.370000,-0.429348
42.371000,-0.379458
45.371000,-0.348006
48.371000,-0.312030
51.369000,-0.278477
54.369000,-0.240726
57.369000,-0.203067
60.370000,-0.162596
63.370000,-0.119705
66.370000,-0.076835
69.368000,-0.027386
72.368000,0.026536
75.368000,0.077589
78.368000,0.130284
81.369000,0.176140
84.367000,0.235994
87.367000,0.294723
90.367000,0.356287
93.367000,0.395225
96.367000,0.463255
99.366000,0.525519
102.366000,0.579346
105.366000,0.647917
108.366000,0.714917
111.366000,0.778412
114.366000,0.840354
117.364000,0.890533
120.365000,0.973412
123.365000,1.032427
126.365000,1.114027
129.365000,1.184566
132.363000,1.255425
135.363000,1.330808
138.363000,1.385063
141.364000,1.475064
144.364000,1.531522
147.362000,1.618742
150.362000,1.687911
153.362000,1.746487
156.362000,1.826089
159.363000,1.905616
162.363000,1.986717
165.361000,2.052017
168.361000,2.129589
171.361000,2.216044
174.361000,2.296958
177.361000,2.375455
180.360000,2.461669
183.360000,2.527224
186.360000,2.596063
189.360000,2.665650
192.360000,2.731977
195.358000,2.791920
198.359000,2.856129
201.359000,2.920960
204.359000,2.985550
207.359000,3.049555
210.357000,3.114977
213.357000,3.175882
216.357000,3.259591
219.358000,3.334358
222.358000,3.411166
225.358000,3.486107
228.356000,3.549752
231.356000,3.606434
234.356000,3.659122
237.357000,3.705566
240.357000,3.746808
243.355000,3.794115
246.355000,3.844940
249.355000,3.894875
252.355000,3.943273
255.355000,3.998106
258.356000,4.053368
261.354000,4.111047
264.354000,4.164908
267.354000,4.214241
270.354000,4.254266
273.354000,4.290460
276.353000,4.327147
279.353000,4.358048
282.353000,4.386998
285.353000,4.420476
288.353000,4.444796
291.351000,4.469782
294.351000,4.496624
297.353000,4.519040
300.352000,4.545593
303.352000,4.573356
306.350000,4.591850
309.350000,4.602170
312.350000,4.637056
315.351000,4.658000
318.351000,4.677424
321.351000,4.694194
324.349000,4.709060
327.349000,4.718833
330.349000,4.733056
333.349000,4.718177
336.350000,4.736636
339.348000,4.745600
342.348000,4.732094
345.348000,4.740103
348.348000,4.720927
351.348000,4.716770
354.349000,4.724680
357.348000,4.705545
360.348000,4.687963
363.346000,4.676187
366.347000,4.659023
369.347000,4.637701
372.345000,4.616819
375.346000,4.595031
378.346000,4.574421
381.346000,4.550216
384.346000,4.524312
387.344000,4.502954
390.344000,4.478525
393.345000,4.455705
396.345000,4.431415
399.345000,4.408707
402.345000,4.384720
405.343000,4.356481
408.343000,4.329520
411.343000,4.301100
414.344000,4.267266
417.344000,4.234733
420.342000,4.199086
423.342000,4.159435
426.342000,4.115204
429.342000,4.068452
432.343000,4.018214
435.341000,3.969565
438.341000,3.922217
441.341000,3.874291
444.341000,3.831502
447.341000,3.789706
450.339000,3.750180
453.340000,3.708907
456.340000,3.668787
459.340000,3.624380
462.340000,3.584895
465.340000,3.537700
468.338000,3.491060
471.339000,3.442240
474.339000,3.389997
477.339000,3.330524
480.339000,3.273525
483.337000,3.212889
486.337000,3.154863
489.337000,3.103603
492.338000,3.051108
495.338000,2.998828
498.338000,2.951290
501.336000,2.902314
504.336000,2.854011
507.336000,2.805769
510.337000,2.761393
513.337000,2.713232
516.335000,2.668523
519.335000,2.621767
522.335000,2.574432
525.335000,2.527105
528.335000,2.480189
531.334000,2.435320
534.334000,2.384875
537.334000,2.335335
540.334000,2.289296
543.334000,2.241846
546.332000,2.193288
549.333000,2.146318
552.333000,2.102835
555.333000,2.057143
558.333000,2.010591
561.333000,1.969060
564.331000,1.925282
567.331000,1.889278
570.332000,1.846414
573.332000,1.806100
576.332000,1.768645
579.330000,1.735806
582.330000,1.712101
585.330000,1.665553
588.331000,1.631181
591.331000,1.615907
594.329000,1.582235
597.329000,1.536873
600.329000,1.504789
603.329000,1.489491
606.329000,1.465127
609.330000,1.453188
612.328000,1.408710
615.328000,1.383370
618.328000,1.361314
621.328000,1.340217
624.328000,1.325892
627.327000,1.307667
630.327000,1.288804
633.327000,1.275580
636.327000,1.263243
639.327000,1.247296
642.325000,1.237584
645.325000,1.230248
648.326000,1.223351
651.326000,1.219825
654.326000,1.226356
657.326000,1.202012
660.324000,1.201098
663.325000,1.198031
666.324000,1.208400
669.324000,1.220390
672.324000,1.206816
675.324000,1.234259
678.324000,1.239396
681.324000,1.245695
684.322000,1.247266
687.323000,1.259157
690.323000,1.262431
693.323000,1.282403
696.323000,1.291449
699.323000,1.309789
702.321000,1.326806
705.322000,1.343845
708.322000,1.355821
711.322000,1.380270
714.321000,1.396553
717.321000,1.417110
720.321000,1.440722
723.319000,1.460443
726.320000,1.485320
729.320000,1.509782
732.320000,1.535064
735.320000,1.565615
738.320000,1.591954
741.318000,1.622325
744.319000,1.651948
747.319000,1.681918
750.319000,1.686017
753.319000,1.736639
756.317000,1.777646
759.317000,1.809703
762.317000,1.843735
765.318000,1.860175
768.318000,1.902896
771.317000,1.946025
774.317000,1.976906
777.317000,2.009799
780.315000,2.058231
783.316000,2.108791
786.316000,2.153127
789.316000,2.195410
792.316000,2.240483
795.314000,2.289398
798.314000,2.302183
801.314000,2.363690
804.315000,2.408073
807.315000,2.446851
810.313000,2.485499
813.313000,2.526068
816.313000,2.565417
819.313000,2.603902
822.314000,2.642435
825.314000,2.679598
828.312000,2.714521
831.312000,2.753414
834.312000,2.789204
837.312000,2.824694
840.312000,2.861942
843.311000,2.897925
846.311000,2.934690
849.311000,2.972275
852.311000,3.009951
855.311000,3.038371
858.309000,3.077808
861.310000,3.117340
864.310000,3.155832
867.310000,3.194664
870.310000,3.235495
873.310000,3.280467
876.308000,3.325564
879.309000,3.367595
882.308000,3.409408
885.308000,3.450875
888.308000,3.484682
891.308000,3.517766
894.308000,3.545499
897.308000,3.576468
900.307000,3.604241
903.307000,3.632202
906.307000,3.653201
909.307000,3.676684
912.307000,3.699083
915.305000,3.725286
918.305000,3.740060
921.306000,3.768102
924.306000,3.786371
927.306000,3.807618
930.304000,3.821362
933.304000,3.829344
936.305000,3.856162
939.304000,3.881811
942.304000,3.898597
945.304000,3.914493
948.304000,3.932150
951.304000,3.946635
954.302000,3.965288
957.302000,3.970530
960.303000,3.973287
963.303000,4.006020
966.303000,4.016766
969.303000,4.022712
972.301000,4.034698
975.301000,4.049207
978.302000,4.055772
981.302000,4.056142
984.302000,4.054476
987.300000,4.064780
990.300000,4.049384
993.300000,4.067377
996.300000,4.057995
999.301000,4.046165
1002.299000,4.041847
1005.299000,4.049537
1008.299000,4.033648
1011.299000,4.028576
1014.298000,4.020234
1017.300000,4.015107
1020.298000,4.003532
1023.298000,3.992259
1026.298000,3.978760
1029.298000,3.967953
1032.298000,3.954196
1035.296000,3.939068
1038.298000,3.926235
1041.298000,3.910210
1044.296000,3.896786
1047.296000,3.878133
1050.296000,3.860279
1053.296000,3.845712
1056.297000,3.827651
1059.295000,3.809443
1062.295000,3.790240
1065.295000,3.771243
1068.295000,3.758162
1071.295000,3.737684
1074.293000,3.716386
1077.294000,3.696075
1080.294000,3.675637
1083.294000,3.654774
1086.294000,3.633878
1089.294000,3.612370
1092.292000,3.589498
1095.293000,3.566164
1098.293000,3.541127
1101.293000,3.515495
1104.293000,3.487790
1107.291000,3.459972
1110.291000,3.433153
1113.291000,3.402198
1116.291000,3.371705
1119.291000,3.337132
1122.291000,3.302329
1125.291000,3.269197
1128.291000,3.233758
1131.289000,3.200467
1134.290000,3.167339
1137.290000,3.132304
1140.290000,3.102104
1143.290000,3.073137
1146.288000,3.042049
1149.288000,3.012834
1152.288000,2.982150
1155.289000,2.953897
1158.289000,2.925284
1161.289000,2.896494
1164.287000,2.868381
1167.287000,2.839047
1170.287000,2.812745
1173.288000,2.784230
1176.288000,2.757266
1179.286000,2.729716
1182.286000,2.703411
1185.286000,2.676991
1188.286000,2.650237
1191.286000,2.623565
1194.285000,2.596318
1197.285000,2.569174
1200.285000,2.545384
1203.285000,2.518953
1206.285000,2.491761
1209.283000,2.466585
1212.284000,2.443302
1215.284000,2.415905
1218.284000,2.390865
1221.283000,2.365026
1224.283000,2.340499
1227.283000,2.316526
1230.283000,2.294623
1233.282000,2.269820
1236.282000,2.246792
1239.282000,2.223741
1242.282000,2.204014
1245.282000,2.183195
1248.282000,2.163271
1251.281000,2.145910
1254.281000,2.128121
1257.281000,2.108598
1260.281000,2.093609
1263.281000,2.072182
1266.279000,2.059907
1269.279000,2.045551
1272.280000,2.027687
1275.280000,2.012474
1278.280000,2.002915
1281.280000,1.991255
1284.278000,1.977609
1287.278000,1.967194
1290.278000,1.961778
1293.278000,1.947514
1296.278000,1.941585
1299.278000,1.938856
1302.278000,1.929432
1305.276000,1.919703
1308.276000,1.939342
1311.277000,1.927185
1314.277000,1.907404
1317.277000,1.927838
1320.277000,1.940205
1323.275000,1.931492
1326.275000,1.909042
1329.276000,1.899153
1332.276000,1.927165
1335.276000,1.933539
1338.274000,1.938019
1341.274000,1.941997
1344.274000,1.941188
1347.274000,1.945712
1350.275000,1.946749
1353.273000,1.964345
1356.273000,1.971028
1359.273000,1.969454
1362.273000,1.976161
1365.273000,1.991959
1368.274000,1.997877
1371.272000,2.011339
1374.272000,2.004115
1377.272000,2.037743
1380.272000,2.049654
1383.272000,2.062521
1386.270000,2.075827
1389.271000,2.091417
1392.271000,2.106412
1395.271000,2.121787
1398.271000,2.135888
1401.271000,2.145529
1404.269000,2.173408
1407.269000,2.185436
1410.270000,2.204258
1413.270000,2.211326
1416.270000,2.221793
1419.268000,2.244790
1422.268000,2.282392
1425.268000,2.304060
1428.269000,2.325034
1431.269000,2.343772
1434.267000,2.369408
1437.267000,2.378994
1440.267000,2.385898
1443.267000,2.421209
1446.267000,2.449213
1449.266000,2.471976
1452.266000,2.494440
1455.266000,2.515408
1458.265000,2.541295
1461.265000,2.562269
1464.265000,2.584927
1467.266000,2.603345
1470.266000,2.627916
1473.264000,2.650390
1476.264000,2.670454
1479.264000,2.694162
1482.264000,2.718016
1485.264000,2.740520
1488.265000,2.764636
1491.263000,2.788269
1494.263000,2.803825
1497.263000,2.831275
1500.263000,2.858927
1503.263000,2.876451
1506.262000,2.871559
1509.262000,2.910802
1512.262000,2.932114
1515.262000,2.954652
1518.262000,2.978207
1521.262000,2.997033
1524.260000,3.021907
1527.261000,3.039982
1530.261000,3.065505
1533.261000,3.093200
1536.260000,3.105649
1539.260000,3.121712
1542.260000,3.151386
1545.259000,3.172126
1548.259000,3.194015
1551.259000,3.216451
1554.259000,3.243368
1557.259000,3.266230
1560.259000,3.286371
1563.257000,3.309597
1566.258000,3.333012
1569.258000,3.353300
1572.257000,3.375536
1575.257000,3.363794
1578.257000,3.399577
1581.257000,3.420242
1584.258000,3.437216
1587.256000,3.452442
1590.256000,3.462260
1593.256000,3.477380
1596.256000,3.489272
1599.256000,3.501255
1602.254000,3.509040
1605.256000,3.523766
1608.256000,3.528522
1611.254000,3.539625
1614.254000,3.551910
1617.254000,3.560365
1620.254000,3.537945
1623.255000,3.570553
1626.254000,3.571148
1629.254000,3.559382
1632.254000,3.587893
1635.252000,3.589284
1638.252000,3.586068
1641.252000,3.586676
1644.253000,3.578851
1647.253000,3.598102
1650.251000,3.581570
1653.251000,3.597218
1656.251000,3.608997
1659.251000,3.594043
1662.252000,3.584504
1665.250000,3.586058
1668.250000,3.589348
1671.250000,3.601111
1674.250000,3.577838
1677.250000,3.571420
1680.250000,3.564825
1683.249000,3.562194
1686.249000,3.556649
1689.249000,3.551149
1692.249000,3.543962
1695.249000,3.534886
1698.247000,3.533774
1701.248000,3.522984
1704.248000,3.516848
1707.248000,3.507200
1710.247000,3.495282
1713.247000,3.488408
1716.247000,3.478132
1719.246000,3.465030
1722.247000,3.452870
1725.247000,3.440415
1728.247000,3.434122
1731.245000,3.417210
1734.245000,3.403102
1737.245000,3.391911
1740.246000,3.373285
1743.246000,3.361921
1746.244000,3.344931
1749.244000,3.326764
1752.244000,3.309416
1755.244000,3.291294
1758.244000,3.275089
1761.243000,3.255678
1764.243000,3.238878
1767.243000,3.220058
1770.243000,3.199828
1773.243000,3.182453
1776.243000,3.163518
1779.242000,3.146490
1782.242000,3.126447
1785.242000,3.109528
1788.242000,3.093438
1791.242000,3.076880
1794.240000,3.058818
1797.240000,3.039928
1800.241000,3.025633
1803.241000,3.007068
1806.241000,2.989785
1809.239000,2.970276
1812.239000,2.955329
1815.239000,2.939205
1818.240000,2.921956
1821.240000,2.904303
1824.240000,2.886778
1827.238000,2.870866
1830.238000,2.855483
1833.238000,2.835674
1836.238000,2.822151
1839.239000,2.805912
1842.237000,2.790060
1845.237000,2.777459
1848.237000,2.762630
1851.237000,2.746139
1854.237000,2.730546
1857.236000,2.716622
1860.237000,2.700610
1863.237000,2.686268
1866.235000,2.673143
1869.235000,2.660289
1872.235000,2.642935
1875.235000,2.629330
1878.236000,2.616562
1881.234000,2.603556
1884.234000,2.591783
1887.234000,2.577886
1890.234000,2.563721
1893.234000,2.549834
1896.235000,2.541244
1899.233000,2.527459
1902.233000,2.516591
1905.233000,2.505692
1908.233000,2.495086
1911.233000,2.482266
1914.231000,2.471561
1917.232000,2.461298
1920.232000,2.454941
1923.232000,2.445861
1926.232000,2.434042
1929.230000,2.428568
1932.230000,2.419206
1935.231000,2.407968
1938.231000,2.400054
1941.231000,2.392109
1944.231000,2.387863
1947.229000,2.382128
1950.229000,2.377658
1953.229000,2.373266
1956.230000,2.362442
1959.230000,2.367412
1962.228000,2.368534
1965.228000,2.348824
1968.228000,2.349888
1971.228000,2.345506
1974.229000,2.352601
1977.227000,2.375544
1980.227000,2.365508
1983.227000,2.345428
1986.227000,2.364992
1989.227000,2.341889
1992.227000,2.343956
1995.226000,2.364057
1998.226000,2.346410
2001.226000,2.353457
2004.226000,2.372093
2007.226000,2.345044
2010.224000,2.370730
2013.225000,2.353471
2016.225000,2.370625
2019.225000,2.367059
2022.225000,2.385892
2025.223000,2.394754
2028.223000,2.392463
2031.223000,2.402518
2034.224000,2.388261
2037.224000,2.414206
2040.224000,2.405670
2043.222000,2.430571
2046.222000,2.441541
2049.222000,2.440249
2052.223000,2.458307
2055.223000,2.461774
2058.221000,2.469481
2061.221000,2.481603
2064.221000,2.494800
2067.221000,2.474910
2070.221000,2.504227
2073.220000,2.518960
2076.220000,2.533989
2079.220000,2.541427
2082.220000,2.550939
2085.220000,2.559590
2088.220000,2.573685
2091.219000,2.583217
2094.219000,2.595162
2097.219000,2.601054
2100.219000,2.616055
2103.219000,2.627923
2106.217000,2.635453
2109.217000,2.632403
2112.218000,2.668047
2115.217000,2.679187
2118.217000,2.694678
2121.217000,2.707273
2124.217000,2.719532
2127.217000,2.732191
2130.216000,2.746649
2133.216000,2.759628
2136.216000,2.773967
2139.216000,2.777272
2142.216000,2.798817
2145.216000,2.808642
2148.214000,2.826982
2151.215000,2.841008
2154.215000,2.855429
2157.215000,2.867905
2160.215000,2.868618
2163.213000,2.866433
2166.213000,2.890072
2169.214000,2.910408
2172.214000,2.922398
2175.213000,2.931260
2178.212000,2.947806
2181.212000,2.957365
2184.212000,2.971921
2187.212000,2.984129
2190.213000,2.994263
2193.211000,3.008751
2196.211000,3.020092
2199.211000,3.014642
2202.211000,3.044847
2205.211000,3.057985
2208.212000,3.070125
2211.210000,3.084556
2214.210000,3.093238
2217.209000,3.113281
2220.209000,3.106108
2223.209000,3.123755
2226.209000,3.137128
2229.210000,3.146467
2232.208000,3.157406
2235.208000,3.166642
2238.208000,3.179282
2241.208000,3.184819
2244.208000,3.179469
2247.209000,3.209343
2250.207000,3.204054
2253.207000,3.221469
2256.207000,3.235815
2259.207000,3.238956
2262.207000,3.246588
2265.205000,3.252152
2268.206000,3.260760
2271.206000,3.248478
2274.206000,3.281401
2277.206000,3.278536
2280.206000,3.268463
2283.204000,3.293255
2286.205000,3.289992
2289.205000,3.295910
2292.205000,3.306972
2295.205000,3.314142
2298.203000,3.316096
2301.203000,3.307261
2304.203000,3.294894
2307.204000,3.278131
2310.204000,3.301139
2313.202000,3.307401
2316.202000,3.304232
2319.202000,3.308369
2322.202000,3.282622
2325.203000,3.277342
2328.201000,3.276948
2331.201000,3.275279
2334.201000,3.274463
2337.201000,3.288037
2340.201000,3.297444
2343.201000,3.278240
2346.201000,3.261181
2349.201000,3.266206
2352.200000,3.254087
2355.200000,3.248097
2358.200000,3.244205
2361.198000,3.243599
2364.199000,3.233398
2367.199000,3.225123
2370.199000,3.221557
2373.199000,3.218620
2376.199000,3.208061
2379.197000,3.203231
2382.197000,3.196663
2385.198000,3.183184
2388.198000,3.178874
2391.198000,3.171946
2394.197000,3.159755
2397.197000,3.154676
2400.197000,3.141286
2403.196000,3.133865
2406.196000,3.124408
2409.196000,3.117469
2412.196000,3.112265
2415.196000,3.099863
2418.194000,3.090042
2421.194000,3.082553
2424.196000,3.072267
2427.194000,3.062153
2430.194000,3.051588
2433.194000,3.041736
2436.194000,3.032731
2439.194000,3.023348
2442.193000,3.012888
2445.193000,3.004971
2448.193000,2.993124
2451.193000,2.983581
2454.193000,2.971877
2457.191000,2.962797
2460.191000,2.954407
2463.192000,2.944022
2466.191000,2.934605
2469.191000,2.923282
2472.191000,2.916938
2475.191000,2.904796
2478.191000,2.892738
2481.190000,2.888315
2484.190000,2.874506
2487.190000,2.866399
2490.190000,2.854953
2493.190000,2.845730
2496.190000,2.835990
2499.188000,2.828056
2502.190000,2.818055
2505.188000,2.808207
2508.188000,2.798943
2511.188000,2.789465
2514.188000,2.781449
2517.188000,2.770945
2520.189000,2.763099
2523.187000,2.753353
2526.187000,2.745561
2529.187000,2.739041
2532.187000,2.726082
2535.187000,2.721935
2538.185000,2.711540
2541.186000,2.705006
2544.186000,2.696062
2547.186000,2.688219
2550.186000,2.677450
2553.184000,2.671552
2556.185000,2.665021
2559.186000,2.663808
2562.184000,2.653446
2565.184000,2.644897
2568.184000,2.639338
2571.184000,2.630765
2574.184000,2.624602
2577.182000,2.618119
2580.183000,2.619951
2583.183000,2.631768
2586.183000,2.608257
2589.183000,2.599102
2592.181000,2.592484
2595.181000,2.589220
2598.181000,2.583944
2601.182000,2.581180
2604.182000,2.585290
2607.182000,2.572961
2610.180000,2.575259
2613.180000,2.594367
2616.180000,2.577492
2619.181000,2.557422
2622.181000,2.562409
2625.179000,2.552710
2628.179000,2.550602
2631.179000,2.562184
2634.179000,2.577883
2637.179000,2.549650
2640.180000,2.547145
2643.178000,2.543491
2646.178000,2.542800
2649.178000,2.542780
2652.178000,2.549052
2655.178000,2.571682
2658.177000,2.572879
2661.177000,2.566162
2664.177000,2.567477
2667.177000,2.567419
2670.177000,2.555793
2673.175000,2.579532
2676.175000,2.554073
2679.176000,2.563690
2682.176000,2.578097
2685.176000,2.559098
2688.174000,2.583179
2691.174000,2.586001
2694.174000,2.574334
2697.175000,2.595903
2700.174000,2.578118
2703.174000,2.609787
2706.174000,2.610504
2709.174000,2.615491
2712.172000,2.619795
2715.173000,2.604042
2718.174000,2.621209
2721.172000,2.629572
2724.172000,2.633658
2727.172000,2.634569
2730.172000,2.647375
2733.172000,2.657784
2736.173000,2.641789
2739.171000,2.646848
2742.171000,2.667323
2745.171000,2.678459
2748.171000,2.667877
2751.171000,2.688012
2754.169000,2.705726
2757.170000,2.707759
2760.170000,2.712804
2763.170000,2.727306
2766.170000,2.733089
2769.168000,2.734445
2772.169000,2.750236
2775.170000,2.760890
2778.168000,2.772675
2781.168000,2.770180
2784.168000,2.779117
2787.168000,2.787987
2790.168000,2.803073
2793.166000,2.799616
2796.167000,2.813972
2799.167000,2.821019
2802.167000,2.835977
2805.167000,2.844972
2808.165000,2.847756
2811.165000,2.855612
2814.166000,2.867486
2817.166000,2.869145
2820.166000,2.882961
2823.166000,2.866507
2826.164000,2.883287
2829.164000,2.893098
2832.164000,2.897888
2835.165000,2.897510
2838.165000,2.907695
2841.163000,2.922337
2844.164000,2.932756
2847.163000,2.942322
2850.163000,2.937475
2853.164000,2.950505
2856.162000,2.963429
2859.162000,2.972853
2862.162000,2.982307
2865.162000,2.989282
2868.162000,2.968712
2871.162000,2.993508
2874.161000,3.003801
2877.161000,3.012987
2880.161000,3.018338
2883.161000,3.009475
2886.160000,3.032337
2889.160000,3.034087
2892.161000,3.031249
2895.161000,3.046053
2898.160000,3.050612
2901.160000,3.054759
2904.158000,3.067528
2907.158000,3.062663
2910.158000,3.075316
2913.159000,3.081605
2916.159000,3.083645
2919.159000,3.094312
2922.157000,3.094659
2925.157000,3.096246
2928.157000,3.103817
2931.158000,3.103987
2934.158000,3.099194
2937.157000,3.106316
2940.157000,3.113975
2943.157000,3.113934
2946.155000,3.112509
2949.155000,3.111112
2952.156000,3.121290
2955.156000,3.095764
2958.156000,3.114892
2961.154000,3.121307
2964.154000,3.116687
2967.154000,3.119366
2970.155000,3.099133
2973.155000,3.117010
2976.155000,3.107924
2979.153000,3.095128
2982.153000,3.095730
2985.153000,3.092473
2988.153000,3.093510
2991.154000,3.090304
2994.152000,3.109236
2997.152000,3.093663
3000.152000,3.083073
3003.152000,3.088938
3006.152000,3.082669
3009.151000,3.073266
3012.151000,3.073596
3015.151000,3.069085
3018.151000,3.068225
3021.151000,3.074898
3024.149000,3.056748
3027.150000,3.053117
3030.151000,3.048562
3033.149000,3.050547
3036.149000,3.040060
3039.149000,3.037344
3042.149000,3.029566
3045.149000,3.032143
3048.148000,3.042423
3051.148000,3.014024
3054.148000,3.007622
3057.148000,3.005974
3060.148000,2.998298
3063.147000,2.991206
3066.147000,2.986828
3069.148000,2.979206
3072.146000,2.974586
3075.146000,2.969093
3078.146000,2.961189
3081.146000,2.956688
3084.146000,2.949628
3087.147000,2.948295
3090.145000,2.939667
3093.145000,2.931233
3096.145000,2.922255
3099.145000,2.916605
3102.145000,2.910700
3105.143000,2.907617
3108.144000,2.899992
3111.144000,2.900199
3114.144000,2.887438
3117.144000,2.880180
3120.142000,2.875363
3123.142000,2.880190
3126.143000,2.859188
3129.143000,2.853630
3132.143000,2.847263
3135.143000,2.840393
3138.141000,2.835763
3141.141000,2.828257
3144.141000,2.820421
3147.142000,2.813945
3150.142000,2.808009
3153.140000,2.806283
3156.140000,2.797424
3159.140000,2.788697
3162.140000,2.791077
3165.141000,2.778625
3168.139000,2.776384
3171.139000,2.769001
3174.139000,2.775857
3177.139000,2.766981
3180.139000,2.753088
3183.139000,2.746670
3186.138000,2.745194
3189.138000,2.742597
3192.138000,2.733500
3195.138000,2.741247
3198.138000,2.725416
3201.136000,2.718495
3204.137000,2.712216
3207.137000,2.711033
3210.137000,2.707895
3213.137000,2.709221
3216.135000,2.701073
3219.135000,2.692690
3222.135000,2.689637
3225.136000,2.687118
3228.136000,2.677453
3231.136000,2.675430
3234.134000,2.674492
3237.134000,2.672191
3240.134000,2.685190
3243.135000,2.672572
3246.135000,2.665076
3249.133000,2.664362
3252.133000,2.665647
3255.133000,2.664311
3258.133000,2.656594
3261.133000,2.653096
3264.132000,2.655503
3267.132000,2.668397
3270.132000,2.667574
3273.132000,2.644778
3276.132000,2.645695
3279.132000,2.655455
3282.131000,2.667894
3285.131000,2.665218
3288.131000,2.660011
3291.131000,2.645903
3294.131000,2.653276
3297.129000,2.662465
3300.129000,2.660922
3303.130000,2.650798
3306.130000,2.672361
3309.130000,2.670518
3312.128000,2.645457
3315.128000,2.663288
3318.128000,2.672439
3321.129000,2.649459
3324.129000,2.670511
3327.127000,2.684946
3330.127000,2.663556
3333.127000,2.674751
3336.127000,2.666534
3339.127000,2.678408
3342.128000,2.677283
3345.126000,2.676025
3348.126000,2.689161
3351.126000,2.687832
3354.126000,2.697010
3357.126000,2.699679
3360.125000,2.706233
3363.125000,2.705325
3366.125000,2.687553
3369.125000,2.711492
3372.125000,2.717733
3375.125000,2.711679
3378.123000,2.725505
3381.125000,2.720242
3384.123000,2.712420
3387.123000,2.732997
3390.123000,2.733701
3393.123000,2.747125
3396.123000,2.750144
3399.124000,2.746860
3402.122000,2.753863
3405.122000,2.749848
3408.122000,2.769405
3411.122000,2.771815
3414.122000,2.763884
3417.120000,2.775075
3420.121000,2.783554
3423.121000,2.783663
3426.121000,2.789911
3429.121000,2.796370
3432.119000,2.800269
3435.119000,2.809043
3438.120000,2.801826
3441.120000,2.814424
3444.120000,2.817120
3447.118000,2.828263
3450.118000,2.828158
3453.118000,2.837887
3456.118000,2.839512
3459.119000,2.843418
3462.119000,2.844846
3465.117000,2.857261
3468.117000,2.851400
3471.117000,2.864831
3474.117000,2.862159
3477.118000,2.870590
3480.116000,2.868986
3483.116000,2.873136
3486.116000,2.881496
3489.116000,2.877117
3492.116000,2.885684
3495.115000,2.893203
3498.116000,2.864590
3501.116000,2.886330
3504.115000,2.890579
3507.115000,2.887751
3510.115000,2.885595
3513.113000,2.900798
3516.114000,2.886622
3519.114000,2.887802
3522.114000,2.915028
3525.114000,2.891446
3528.112000,2.910054
3531.112000,2.905244
3534.113000,2.923401
3537.112000,2.913284
3540.112000,2.927827
3543.112000,2.919423
3546.112000,2.927382
3549.112000,2.919784
3552.110000,2.934153
3555.111000,2.942247
3558.111000,2.948009
3561.111000,2.924458
3564.111000,2.949458
3567.109000,2.928017
3570.109000,2.936441
3573.110000,2.943859
3576.109000,2.941690
3579.109000,2.959041
3582.109000,2.946874
3585.109000,2.943515
3588.109000,2.952663
3591.107000,2.934949
3594.108000,2.958242
3597.108000,2.941901
3600.108000,2.946650
3603.107000,2.958993
3606.107000,2.943522
3609.107000,2.961114
3612.107000,2.945188
3615.108000,2.956379
3618.106000,2.940140
3621.106000,2.940605
3624.106000,2.939392
3627.106000,2.945117
3630.106000,2.948540
3633.105000,2.942101
3636.105000,2.955917
3639.105000,2.959020
3642.105000,2.938379
3645.105000,2.936832
3648.103000,2.931277
3651.103000,2.936975
3654.104000,2.931617
3657.103000,2.929340
3660.103000,2.945677
3663.103000,2.920882
3666.103000,2.924869
3669.103000,2.921806
3672.102000,2.922915
3675.102000,2.914521
3678.102000,2.936557
3681.102000,2.923958
3684.102000,2.912862
3687.102000,2.910983
3690.100000,2.912954
3693.101000,2.907634
3696.101000,2.912312
3699.101000,2.900947
3702.101000,2.900046
3705.099000,2.893608
3708.099000,2.899880
3711.100000,2.889569
3714.100000,2.887700
3717.100000,2.891551
3720.098000,2.884130
3723.098000,2.874867
3726.098000,2.877070
3729.098000,2.876349
3732.099000,2.869173
3735.099000,2.863975
3738.097000,2.868890
3741.098000,2.864172
3744.096000,2.854249
3747.096000,2.868669
3750.097000,2.855541
3753.097000,2.848932
3756.097000,2.845917
3759.097000,2.838438
3762.095000,2.832384
3765.095000,2.840651
3768.095000,2.847783
3771.096000,2.826200
3774.096000,2.823841
3777.094000,2.825265
3780.094000,2.809685
3783.094000,2.812245
3786.094000,2.806204
3789.095000,2.808013
3792.093000,2.798083
3795.093000,2.814112
3798.093000,2.807958
3801.093000,2.795126
3804.093000,2.790852
3807.091000,2.784570
3810.092000,2.785787
3813.092000,2.781793
3816.092000,2.769864
3819.092000,2.768545
3822.091000,2.769412
3825.091000,2.774991
3828.092000,2.757929
3831.092000,2.756134
3834.090000,2.751830
3837.090000,2.750161
3840.090000,2.751419
3843.090000,2.744603
3846.089000,2.743270
3849.090000,2.740367
3852.089000,2.745147
3855.089000,2.743301
3858.089000,2.752812
3861.089000,2.728758
3864.087000,2.726259
3867.088000,2.724271
3870.088000,2.722452
3873.087000,2.721323
3876.087000,2.732813
3879.087000,2.737494
3882.087000,2.715969
3885.087000,2.714507
3888.086000,2.716329
3891.086000,2.716265
3894.086000,2.712631
3897.086000,2.706022
3900.086000,2.723798
3903.084000,2.711808
3906.085000,2.705856
3909.085000,2.713528
3912.085000,2.722418
3915.085000,2.708555
3918.085000,2.725399
3921.083000,2.704458
3924.083000,2.714116
3927.084000,2.726334
3930.084000,2.715921
3933.084000,2.702079
3936.082000,2.714990
3939.082000,2.722625
3942.082000,2.703568
3945.082000,2.713144
3948.083000,2.726715
3951.081000,2.719093
3954.081000,2.723560
3957.081000,2.725573
3960.081000,2.731586
3963.081000,2.715884
3966.082000,2.708157
3969.080000,2.722720
3972.080000,2.724080
3975.080000,2.713834
3978.080000,2.730556
3981.080000,2.728639
3984.080000,2.716748
3987.080000,2.737974
3990.080000,2.735513
3993.079000,2.718988
3996.079000,2.745014
3999.077000,2.743508
4002.077000,2.751973
4005.078000,2.738480
4008.078000,2.734245
4011.078000,2.753197
4014.078000,2.733857
4017.076000,2.754145
4020.076000,2.738708
4023.076000,2.761960
4026.077000,2.752184
4029.077000,2.745667
4032.075000,2.771027
4035.075000,2.761427
4038.075000,2.751517
4041.075000,2.774137
4044.076000,2.771339
4047.076000,2.786273
4050.074000,2.781028
4053.074000,2.784421
4056.074000,2.774372
4059.074000,2.794123
4062.074000,2.793660
4065.073000,2.787082
4068.073000,2.794871
4071.073000,2.791719
4074.073000,2.808203
4077.073000,2.811504
4080.071000,2.803828
4083.072000,2.802302
4086.073000,2.824898
4089.071000,2.826550
4092.071000,2.832265
4095.071000,2.833958
4098.070000,2.825428
4101.070000,2.839081
4104.071000,2.837286
4107.071000,2.845298
4110.071000,2.850156
4113.069000,2.850775
4116.069000,2.852325
4119.069000,2.852437
4122.070000,2.866824
4125.070000,2.862550
4128.068000,2.865161
4131.068000,2.864196
4134.068000,2.870505
4137.068000,2.872946
4140.068000,2.884191
4143.067000,2.879531
4146.067000,2.876097
4149.067000,2.883348
4152.067000,2.886673
4155.067000,2.891963
4158.067000,2.889131
4161.066000,2.900057
4164.066000,2.903123
4167.066000,2.900332
4170.066000,2.905673
4173.066000,2.906183
4176.064000,2.912210
4179.064000,2.915341
4182.065000,2.915619
4185.065000,2.909820
4188.064000,2.916609
4191.064000,2.915436
4194.064000,2.924115
4197.064000,2.912992
4200.063000,2.926515
4203.063000,2.925328
4206.063000,2.922558
4209.063000,2.921636
4212.062000,2.925723
4215.062000,2.927851
4218.062000,2.920586
4221.063000,2.927902
4224.061000,2.924227
4227.061000,2.927616
4230.061000,2.929289
4233.061000,2.927898
4236.061000,2.927766
4239.060000,2.933171
4242.060000,2.932294
4245.060000,2.925298
4248.060000,2.923115
4251.060000,2.927613
4254.060000,2.920695
4257.058000,2.922578
4260.059000,2.930081
4263.059000,2.931101
4266.059000,2.930077
4269.059000,2.920430
4272.057000,2.920253
4275.057000,2.919797
4278.058000,2.916799
4281.058000,2.928745
4284.058000,2.926185
4287.056000,2.913250
4290.056000,2.916721
4293.056000,2.920005
4296.056000,2.910843
4299.057000,2.909334
4302.057000,2.907481
4305.055000,2.912757
4308.055000,2.909456
4311.055000,2.895760
4314.055000,2.907515
4317.056000,2.899832
4320.054000,2.890327
4323.054000,2.889158
4326.054000,2.898313
4329.054000,2.884168
4332.054000,2.878630
4335.052000,2.871902
4338.053000,2.869880
4341.053000,2.869176
4344.052000,2.864512
4347.052000,2.861483
4350.052000,2.865001
4353.052000,2.857849
4356.053000,2.854541
4359.051000,2.844962
4362.051000,2.838778
4365.051000,2.836973
4368.051000,2.855061
4371.051000,2.836422
4374.051000,2.828828
4377.050000,2.828549
4380.050000,2.824092
4383.050000,2.818578
4386.050000,2.817922
4389.050000,2.809373
4392.048000,2.807282
4395.049000,2.807445
4398.049000,2.803308
4401.049000,2.798997
4404.049000,2.794894
4407.047000,2.787762
4410.047000,2.789581
4413.047000,2.808210
4416.048000,2.799470
4419.048000,2.787286
4422.047000,2.781728
4425.047000,2.786671
4428.047000,2.782891
4431.045000,2.775014
4434.046000,2.792324
4437.046000,2.767124
4440.046000,2.767196
4443.046000,2.765979
4446.044000,2.786511
4449.044000,2.784526
4452.044000,2.755474
4455.045000,2.750409
4458.045000,2.746775
4461.045000,2.746663
4464.043000,2.748118
4467.043000,2.755981
4470.043000,2.741560
4473.044000,2.737396
4476.044000,2.735288
4479.042000,2.739041
4482.042000,2.753037
4485.042000,2.732949
4488.042000,2.732453
4491.042000,2.726242
4494.043000,2.733758
4497.041000,2.726688
4500.041000,2.726609
4503.040000,2.736628
4506.040000,2.716435
4509.041000,2.721850
4512.040000,2.742260
4515.040000,2.723472
4518.040000,2.722727
4521.040000,2.737930
4524.040000,2.731430
4527.038000,2.712967
4530.038000,2.720949
4533.039000,2.718236
4536.038000,2.708987
4539.038000,2.717060
4542.038000,2.718699
4545.038000,2.707800
4548.038000,2.705733
4551.037000,2.717427
4554.037000,2.732902
4557.037000,2.707059
4560.037000,2.713341
4563.037000,2.722027
4566.035000,2.708925
4569.035000,2.728425
4572.036000,2.729234
4575.036000,2.705400
4578.036000,2.704737
4581.036000,2.721769
4584.034000,2.705455
4587.034000,2.714946
4590.035000,2.721534
4593.035000,2.707164
4596.035000,2.724427
4599.033000,2.708028
4602.033000,2.718886
4605.033000,2.728132
4608.033000,2.712206
4611.034000,2.736444
4614.034000,2.711550
4617.032000,2.730250
4620.032000,2.732416
4623.032000,2.737250
4626.032000,2.735734
4629.033000,2.717363
4632.031000,2.733667
4635.031000,2.739966
4638.031000,2.721840
4641.031000,2.746180
4644.031000,2.736373
4647.029000,2.738671
4650.030000,2.750256
4653.030000,2.729672
4656.030000,2.757001
4659.030000,2.739174
4662.030000,2.744535
4665.028000,2.757990
4668.029000,2.763820
4671.029000,2.750045
4674.029000,2.755671
4677.029000,2.775565
4680.027000,2.769232
4683.027000,2.755253
4686.027000,2.774919
4689.028000,2.757422
4692.028000,2.778159
4695.026000,2.775847
4698.026000,2.764184
4701.026000,2.781477
4704.026000,2.787589
4707.027000,2.786756
4710.025000,2.787619
4713.025000,2.799541
4716.025000,2.795822
4719.024000,2.791216
4722.024000,2.807782
4725.024000,2.810253
4728.025000,2.802509
4731.025000,2.812748
4734.023000,2.800204
4737.023000,2.810743
4740.023000,2.826717
4743.023000,2.824296
4746.024000,2.815481
4749.024000,2.831962
4752.022000,2.833879
4755.022000,2.831629
4758.022000,2.836745
4761.022000,2.834264
4764.022000,2.842422
4767.021000,2.839053
4770.021000,2.849429
4773.021000,2.841763
4776.021000,2.854042
4779.021000,2.848613
4782.019000,2.853348
4785.020000,2.857373
4788.020000,2.864743
4791.020000,2.858420
4794.020000,2.869332
4797.020000,2.870396
4800.018000,2.869142
4803.018000,2.876515
4806.019000,2.870587
4809.019000,2.873973
4812.019000,2.885048
4815.017000,2.875390
4818.017000,2.884892
4821.017000,2.881084
4824.017000,2.890606
4827.017000,2.882923
4830.016000,2.892724
4833.016000,2.894216
4836.016000,2.896062
4839.016000,2.890657
4842.016000,2.906992
4845.017000,2.895920
4848.015000,2.903385
4851.015000,2.904670
4854.015000,2.891748
4857.015000,2.898435
4860.015000,2.904483
4863.014000,2.902463
4866.014000,2.899254
4869.014000,2.908440
4872.014000,2.900917
4875.014000,2.910568
4878.012000,2.903976
4881.012000,2.902994
4884.013000,2.910415
4887.013000,2.898928
4890.013000,2.908960
4893.013000,2.912108
4896.011000,2.899163
4899.011000,2.898462
4902.012000,2.911132
4905.012000,2.897476
4908.012000,2.902368
4911.010000,2.898942
4914.010000,2.900652
4917.010000,2.895913
4920.010000,2.908786
4923.011000,2.891293
4926.009000,2.890514
4929.009000,2.889620
4932.009000,2.890786
4935.009000,2.899832
4938.009000,2.893839
4941.010000,2.885306
4944.009000,2.885755
4947.009000,2.881122
4950.007000,2.878915
4953.007000,2.888359
4956.007000,2.881822
4959.007000,2.880207
4962.008000,2.889216
4965.008000,2.884059
4968.006000,2.869139
4971.006000,2.871654
4974.006000,2.869077
4977.006000,2.869431
4980.007000,2.872790
4983.005000,2.864821
4986.005000,2.870498
4989.005000,2.868041
4992.005000,2.860439
4995.005000,2.859481
4998.005000,2.863553
5001.004000,2.854371
5004.004000,2.852281
5007.004000,2.849276
5010.004000,2.849344
5013.004000,2.850210
5016.002000,2.845801
5019.003000,2.843357
5022.003000,2.846627
5025.003000,2.843354
5028.003000,2.835413
5031.001000,2.831860
5034.001000,2.830721
5037.002000,2.836698
5040.001000,2.827410
5043.001000,2.823786
5046.001000,2.818051
5049.001000,2.822855
5052.001000,2.837986
5054.999000,2.819744
5058.000000,2.812242
5061.000000,2.804280
5064.000000,2.824466
5067.000000,2.819034
5069.998000,2.803475
5072.998000,2.808081
5075.998000,2.801567
5078.999000,2.789826
5081.999000,2.788459
5084.999000,2.790591
5087.997000,2.813455
5090.997000,2.794279
5093.997000,2.787548
5096.998000,2.783095
5099.998000,2.804205
5102.996000,2.782208
5105.996000,2.779614
5108.996000,2.781868
5111.996000,2.786708
5114.996000,2.772754
5117.995000,2.794044
5120.995000,2.792049
5123.995000,2.768749
5126.995000,2.771241
5129.995000,2.774600
5132.995000,2.767532
5135.994000,2.786532
5138.994000,2.772084
5141.994000,2.768022
5144.994000,2.776724
5147.993000,2.759268
5150.993000,2.756569
5153.993000,2.751694
5156.994000,2.761726
5159.992000,2.761403
5162.992000,2.749491
5165.992000,2.749195
5168.992000,2.750691
5171.992000,2.766390
5174.991000,2.763939
5177.991000,2.742424
5180.991000,2.749015
5183.991000,2.750256
5186.991000,2.737032
5189.989000,2.736039
5192.989000,2.755257
5195.990000,2.746289
5198.990000,2.728615
5201.990000,2.727486
5204.990000,2.729791
5207.988000,2.728935
5210.988000,2.733425
5213.988000,2.733527
5216.989000,2.725086
5219.989000,2.744015
5222.987000,2.747288
5225.987000,2.729064
5228.987000,2.719498
5231.987000,2.744011
5234.988000,2.728078
5237.986000,2.725039
5240.986000,2.732705
5243.986000,2.743688
5246.986000,2.720810
5249.986000,2.731457
5252.986000,2.736706
5255.985000,2.721622
5258.985000,2.741968
5261.985000,2.721595
5264.985000,2.716176
5267.985000,2.716176
5270.983000,2.716187
5273.984000,2.716061
5276.984000,2.721803
5279.984000,2.726055
5282.984000,2.725399
5285.982000,2.726494
5288.982000,2.728856
5291.982000,2.739650
5294.983000,2.716265
5297.983000,2.717380
5300.982000,2.725379
5303.982000,2.744915
5306.982000,2.730430
5309.980000,2.729485
5312.981000,2.737287
5315.981000,2.732708
5318.981000,2.740398
5321.981000,2.723237
5324.981000,2.746942
5327.979000,2.748614
5330.979000,2.738147
5333.980000,2.727412
5336.980000,2.743879
5339.980000,2.749824
5342.978000,2.735462
5345.978000,2.750776
5348.978000,2.738936
5351.979000,2.759710
5354.979000,2.739337
5357.977000,2.762841
5360.977000,2.749634
5363.977000,2.758122
5366.977000,2.773977
5369.977000,2.747941
5372.978000,2.753744
5375.976000,2.775534
5378.976000,2.780328
5381.976000,2.754570
5384.976000,2.768107
5387.976000,2.778771
5390.975000,2.784679
5393.975000,2.776581
5396.975000,2.759254
5399.975000,2.779845
5402.974000,2.768943
5405.974000,2.772879
5408.974000,2.789448
5411.975000,2.787552
5414.973000,2.792651
5417.973000,2.789404
5420.973000,2.777673
5423.973000,2.777200
5426.973000,2.782238
5429.972000,2.805286
5432.972000,2.801044
5435.972000,2.804454
5438.972000,2.803682
5441.972000,2.791937
5444.972000,2.806024
5447.970000,2.800809
5450.971000,2.817079
5453.971000,2.810933
5456.971000,2.811001
5459.971000,2.818963
5462.969000,2.808567
5465.969000,2.828212
5468.970000,2.827471
5471.970000,2.813870
5474.970000,2.827346
5477.968000,2.828348
5480.968000,2.830245
5483.968000,2.826241
5486.968000,2.832666
5489.969000,2.839645
5492.969000,2.835566
5495.967000,2.838785
5498.967000,2.839570
5501.967000,2.842592
5504.967000,2.839818
5507.968000,2.839597
5510.966000,2.850921
5513.966000,2.840532
5516.966000,2.852675
5519.966000,2.844285
5522.966000,2.852495
5525.964000,2.857070
5528.965000,2.850962
5531.965000,2.867034
5534.965000,2.865569
5537.965000,2.859253
5540.965000,2.861517
5543.963000,2.864396
5546.964000,2.863951
5549.964000,2.870226
5552.964000,2.863370
5555.964000,2.870288
5558.962000,2.862850
5561.962000,2.869421
5564.962000,2.874438
5567.963000,2.871345
5570.963000,2.868503
5573.961000,2.877399
5576.961000,2.885483
5579.961000,2.869971
5582.961000,2.881961
5585.962000,2.876600
5588.960000,2.874982
5591.960000,2.887604
5594.960000,2.874873
5597.960000,2.886761
5600.960000,2.883967
5603.959000,2.870764
5606.960000,2.883447
5609.960000,2.878409
5612.960000,2.885323
5615.959000,2.882682
5618.959000,2.879116
5621.957000,2.882291
5624.958000,2.885133
5627.958000,2.881142
5630.958000,2.881700
5633.958000,2.872354
5636.958000,2.881890
5639.956000,2.889590
5642.956000,2.875825
5645.957000,2.883984
5648.957000,2.889046
5651.957000,2.871705
5654.955000,2.872902
5657.955000,2.875815
5660.955000,2.869965
5663.956000,2.877875
5666.956000,2.874999
5669.954000,2.866392
5672.954000,2.870539
5675.954000,2.867116
5678.954000,2.866830
5681.954000,2.870390
5684.953000,2.872790
5687.953000,2.859297
5690.953000,2.866613
5693.953000,2.856503
5696.953000,2.850523
5699.953000,2.851546
5702.952000,2.848759
5705.952000,2.850044
5708.952000,2.859331
5711.952000,2.841457
5714.952000,2.838513
5717.950000,2.835613
5720.950000,2.838261
5723.951000,2.842001
5726.951000,2.833206
5729.950000,2.832499
5732.950000,2.838679
5735.950000,2.826401
5738.950000,2.819449
5741.949000,2.820333
5744.949000,2.815376
5747.949000,2.812830
5750.949000,2.807724
5753.949000,2.810328
5756.949000,2.805334
5759.947000,2.807751
5762.948000,2.798440
5765.948000,2.795187
5768.948000,2.803097
5771.948000,2.798185
5774.946000,2.791491
5777.946000,2.790098
5780.948000,2.787133
5783.946000,2.788282
5786.946000,2.779869
5789.946000,2.779090
5792.946000,2.782554
5795.946000,2.794806
5798.944000,2.772553
5801.945000,2.770377
5804.945000,2.769534
5807.945000,2.778845
5810.945000,2.782044
5813.943000,2.766342
5816.943000,2.763283
5819.944000,2.773661
5822.944000,2.766199
5825.944000,2.758054
5828.942000,2.780906
5831.942000,2.761389
5834.942000,2.756018
5837.942000,2.760176
5840.943000,2.771509
5843.943000,2.750681
5846.941000,2.766393
5849.941000,2.746591
5852.941000,2.756412
5855.941000,2.766611
5858.942000,2.771581
5861.940000,2.763636
5864.940000,2.745456
5867.940000,2.739993
5870.940000,2.746527
5873.940000,2.741132
5876.940000,2.734952
5879.939000,2.734945
5882.940000,2.727718
5885.938000,2.745170
5888.938000,2.751425
5891.938000,2.729815
5894.938000,2.743501
5897.939000,2.746605
5900.937000,2.752003
5903.937000,2.729502
5906.937000,2.725712
5909.937000,2.739962
5912.937000,2.746833
5915.937000,2.727983
5918.936000,2.718240
5921.936000,2.716727
5924.936000,2.720076
5927.936000,2.728523
5930.936000,2.739609
5933.934000,2.736668
5936.935000,2.723968
5939.935000,2.718084
5942.935000,2.740034
5945.935000,2.731097
5948.933000,2.713858
5951.933000,2.715826
5954.934000,2.714439
5957.933000,2.708698
5960.934000,2.710860
5963.934000,2.709785
5966.932000,2.723050
5969.932000,2.734996
5972.932000,2.723526
5975.933000,2.710819
5978.933000,2.728656
5981.931000,2.714963
5984.931000,2.713341
5987.931000,2.722547
5990.931000,2.722442
5993.931000,2.726817
5996.932000,2.706009
5999.930000,2.714715
6002.930000,2.727639
6005.930000,2.728333
6008.930000,2.716159
6011.930000,2.737148
6014.929000,2.741540
6017.929000,2.733918
6020.929000,2.714939
6023.929000,2.727789
6026.929000,2.743178
6029.927000,2.737263
6032.928000,2.742335
6035.929000,2.720480
6038.927000,2.739164
6041.927000,2.726232
6044.927000,2.746194
6047.926000,2.731284
6050.926000,2.725375
6053.927000,2.741798
6056.927000,2.743647
6059.927000,2.725229
6062.925000,2.749634
6065.925000,2.752173
6068.925000,2.758806
6071.925000,2.741645
6074.926000,2.752187
6077.924000,2.764636
6080.924000,2.749389
6083.924000,2.737029
6086.924000,2.748594
6089.924000,2.771217
6092.925000,2.766376
6095.923000,2.748176
6098.923000,2.760988
6101.923000,2.762124
6104.922000,2.751582
6107.922000,2.772098
6110.922000,2.767899
6113.923000,2.760138
6116.923000,2.780583
6119.922000,2.770697
6122.922000,2.765659
6125.920000,2.790278
6128.920000,2.795122
6131.921000,2.781181
6134.921000,2.778332
6137.921000,2.796094
6140.920000,2.803906
6143.920000,2.783809
6146.920000,2.795411
6149.918000,2.794347
6152.919000,2.793201
6155.919000,2.807370
6158.919000,2.797767
6161.919000,2.804100
6164.917000,2.817545
6167.917000,2.805677
6170.918000,2.815172
6173.918000,2.811079
6176.917000,2.813122
6179.917000,2.828229
6182.917000,2.815716
6185.916000,2.821550
6188.916000,2.828301
6191.917000,2.829916
6194.917000,2.828641
6197.915000,2.831996
6200.915000,2.832734
6203.915000,2.829181
6206.915000,2.834141
6209.916000,2.828325
6212.915000,2.836354
6215.915000,2.835079
6218.915000,2.839492
6221.913000,2.834546
6224.913000,2.843129
6227.913000,2.831819
6230.914000,2.841185
6233.914000,2.838812
6236.912000,2.850584
6239.912000,2.840172
6242.912000,2.848086
6245.912000,2.847732
6248.913000,2.845968
6251.912000,2.851200
6254.912000,2.847559
6257.912000,2.852621
6260.911000,2.847885
6263.911000,2.851475
6266.911000,2.844108
6269.910000,2.839890
6272.910000,2.842606
6275.910000,2.850775
6278.910000,2.846209
6281.910000,2.858281
6284.908000,2.849568
6287.909000,2.852457
6290.909000,2.854681
6293.909000,2.846508
6296.909000,2.848830
6299.908000,2.846451
6302.908000,2.851992
6305.908000,2.849877
6308.907000,2.847770
6311.907000,2.841321
6314.907000,2.843823
6317.907000,2.841073
6320.907000,2.833703
6323.907000,2.837439
6326.906000,2.829960
6329.906000,2.835579
6332.905000,2.828423
6335.905000,2.829052
6338.905000,2.828736
6341.905000,2.831252
6344.905000,2.834576
6347.906000,2.831581
6350.904000,2.822172
6353.904000,2.826282
6356.904000,2.834427
6359.903000,2.819160
6362.903000,2.817627
6365.904000,2.809226
6368.903000,2.807928
6371.903000,2.808006
6374.903000,2.807585
6377.903000,2.806201
6380.901000,2.808254
6383.901000,2.803798
6386.902000,2.797148
6389.902000,2.797495
6392.902000,2.791403
6395.902000,2.792012
6398.900000,2.792620
6401.900000,2.797165
6404.900000,2.791644
6407.901000,2.780317
6410.901000,2.782575
6413.899000,2.777289
6416.899000,2.774447
6419.899000,2.771656
6422.899000,2.770095
6425.900000,2.765921
6428.898000,2.767145
6431.898000,2.761060
6434.898000,2.765169
6437.898000,2.768127
6440.898000,2.757035
6443.898000,2.765370
6446.897000,2.766652
6449.897000,2.751541
6452.897000,2.748634
6455.897000,2.746755
6458.897000,2.746200
6461.895000,2.746952
6464.896000,2.740605
6467.896000,2.739133
6470.896000,2.746765
6473.896000,2.738830
6476.894000,2.747224
6479.895000,2.758428
6482.895000,2.735394
6485.894000,2.733673
6488.895000,2.726303
6491.895000,2.725389
6494.893000,2.724158
6497.893000,2.733452
6500.892000,2.743090
6503.893000,2.716958
6506.893000,2.724600
6509.893000,2.725474
6512.892000,2.714235
6515.892000,2.723353
6518.892000,2.744457
6521.892000,2.736910
6524.891000,2.721531
6527.891000,2.707946
6530.891000,2.717349
6533.891000,2.715605
6536.890000,2.711108
6539.890000,2.705818
6542.891000,2.709755
6545.891000,2.706699
6548.889000,2.705455
6551.889000,2.705811
6554.889000,2.714834
6557.889000,2.714749
6560.889000,2.712151
6563.890000,2.702188
6566.888000,2.703333
6569.888000,2.721932
6572.887000,2.717985
6575.887000,2.702371
6578.887000,2.701532
6581.888000,2.719137
6584.888000,2.723312
6587.886000,2.713464
6590.886000,2.698710
6593.886000,2.713705
6596.886000,2.726025
6599.885000,2.706964
6602.886000,2.698064
6605.886000,2.713192
6608.886000,2.727333
6611.886000,2.708925
6614.884000,2.705886
6617.884000,2.714388
6620.885000,2.731182
6623.885000,2.703153
6626.885000,2.706808
6629.883000,2.726531
6632.883000,2.715354
6635.883000,2.705696
6638.883000,2.722734
6641.883000,2.714718
6644.883000,2.711247
6647.883000,2.733969
6650.883000,2.713882
6653.881000,2.737528
6656.881000,2.735356
6659.882000,2.725627
6662.882000,2.716870
6665.882000,2.727476
6668.880000,2.739823
6671.881000,2.717764
6674.881000,2.745473
6677.879000,2.732467
6680.880000,2.732983
6683.880000,2.754723
6686.880000,2.730182
6689.880000,2.731182
6692.878000,2.742420
6695.878000,2.758996
6698.879000,2.735509
6701.878000,2.740687
6704.878000,2.759248
6707.878000,2.741999
6710.878000,2.765050
6713.878000,2.752693
6716.876000,2.758027
6719.877000,2.775640
6722.877000,2.763901
6725.877000,2.752085
6728.876000,2.768664
6731.876000,2.761967
6734.876000,2.778410
6737.877000,2.772172
6740.875000,2.766318
6743.875000,2.776887
6746.875000,2.787586
6749.875000,2.784196
6752.875000,2.790808
6755.875000,2.778166
6758.874000,2.795299
6761.874000,2.788143
6764.874000,2.788871
6767.874000,2.790451
6770.874000,2.791818
6773.872000,2.796764
6776.873000,2.797281
6779.873000,2.806860
6782.873000,2.794673
6785.873000,2.807588
6788.871000,2.812082
6791.871000,2.801129
6794.871000,2.814944
6797.871000,2.805473
6800.871000,2.813041
6803.871000,2.812633
6806.871000,2.812371
6809.871000,2.825959
6812.869000,2.813483
6815.870000,2.825520
6818.870000,2.822294
6821.870000,2.820217
6824.870000,2.829443
6827.868000,2.826180
6830.868000,2.828705
6833.868000,2.827815
6836.869000,2.834423
6839.869000,2.828151
6842.869000,2.832339
6845.867000,2.833978
6848.867000,2.836262
6851.867000,2.829355
6854.868000,2.838401
6857.868000,2.830160
6860.866000,2.840896
6863.866000,2.836456
6866.866000,2.838377
6869.866000,2.840940
6872.866000,2.840406
6875.867000,2.837483
6878.865000,2.844520
6881.865000,2.846260
6884.865000,2.841810
6887.865000,2.852005
6890.865000,2.839458
6893.864000,2.847566
6896.864000,2.846206
6899.864000,2.845067
6902.864000,2.857655
6905.864000,2.844163
6908.862000,2.853491
6911.862000,2.845842
6914.863000,2.859035
6917.863000,2.849333
6920.863000,2.855548
6923.861000,2.864128
6926.861000,2.850989
6929.861000,2.858084
6932.862000,2.850608
6935.862000,2.864488
6938.862000,2.851825
6941.860000,2.857839
6944.860000,2.864135
6947.860000,2.856829
6950.860000,2.865131
6953.860000,2.855177
6956.860000,2.858101
6959.860000,2.866184
6962.860000,2.853131
6965.858000,2.858162
6968.858000,2.860395
6971.859000,2.867327
6974.859000,2.854048
6977.859000,2.862663
6980.857000,2.856418
6983.857000,2.859117
6986.857000,2.860868
6989.857000,2.859766
6992.858000,2.851767
6995.858000,2.861330
6998.856000,2.854592
7001.856000,2.848936
7004.856000,2.854208
7007.856000,2.859933
7010.857000,2.859277
7013.855000,2.850601
7016.855000,2.848772
7019.855000,2.849983
7022.855000,2.856952
7025.854000,2.848973
7028.854000,2.848147
7031.855000,2.853052
7034.855000,2.853725
7037.853000,2.847147
7040.853000,2.855592
7043.853000,2.844312
7046.853000,2.850156
7049.854000,2.858124
7052.852000,2.846002
7055.852000,2.847977
7058.852000,2.845223
7061.852000,2.848313
7064.852000,2.838401
7067.850000,2.838231
7070.851000,2.845591
7073.851000,2.841984
7076.851000,2.825697
7079.851000,2.823810
7082.851000,2.828345
7085.849000,2.835973
7088.850000,2.821118
7091.850000,2.810362
7094.850000,2.818504
7097.850000,2.817412
7100.848000,2.808366
7103.848000,2.814247
7106.848000,2.833672
7109.849000,2.815855
7112.849000,2.809832
7115.848000,2.814247
7118.848000,2.816586
7121.848000,2.815006
7124.846000,2.802788
7127.847000,2.824844
7130.847000,2.819928
7133.847000,2.801965
7136.847000,2.811834
7139.845000,2.826329
7142.845000,2.825578
7145.845000,2.820380
7148.846000,2.818878
7151.846000,2.820553
7154.846000,2.828331
7157.844000,2.821944
7160.844000,2.799919
7163.843000,2.822518
7166.845000,2.810675
7169.845000,2.808795
7172.843000,2.825653
7175.843000,2.808666
7178.843000,2.801557
7181.843000,2.804719
7184.843000,2.807408
7187.842000,2.817076
7190.842000,2.828467
7193.842000,2.828372
7196.842000,2.828338
7199.842000,2.833002
7202.842000,2.821740
7205.842000,2.813139
