Time(s),Position(V)
0.358000,1.888999
3.373000,1.881221
6.373000,1.871101
9.373000,1.853196
12.373000,1.842443
15.373000,1.832235
18.373000,1.818120
21.373000,1.805964
24.371000,1.790296
27.371000,1.774842
30.372000,1.768468
33.372000,1.761173
36.372000,1.740851
39.370000,1.729864
42.370000,1.710888
45.371000,1.684906
48.370000,1.677505
51.370000,1.666487
54.370000,1.644547
57.370000,1.621968
60.370000,1.606405
63.368000,1.591301
66.368000,1.580355
69.369000,1.558011
72.369000,1.537437
75.369000,1.527650
78.367000,1.523917
81.367000,1.491201
84.367000,1.486078
87.368000,1.470695
90.368000,1.457121
93.368000,1.438186
96.366000,1.437663
99.366000,1.414397
102.366000,1.395251
105.366000,1.389574
108.367000,1.374980
111.365000,1.361114
114.365000,1.351690
117.365000,1.329281
120.365000,1.322934
123.365000,1.316945
126.366000,1.307280
129.364000,1.286023
132.364000,1.286982
135.364000,1.273268
138.364000,1.258297
141.364000,1.259891
144.362000,1.249105
147.363000,1.244417
150.362000,1.232155
153.362000,1.226363
156.362000,1.220580
159.362000,1.217996
162.362000,1.207961
165.363000,1.206720
168.361000,1.200074
171.361000,1.197134
174.361000,1.196682
177.361000,1.190617
180.361000,1.189247
183.359000,1.189346
186.360000,1.187218
189.360000,1.186235
192.360000,1.187048
195.360000,1.185844
198.358000,1.186936
201.358000,1.189900
204.359000,1.192412
207.359000,1.192823
210.359000,1.198351
213.359000,1.200044
216.357000,1.204341
219.357000,1.207859
222.357000,1.213693
225.358000,1.216606
228.358000,1.223677
231.356000,1.231999
234.356000,1.235303
237.356000,1.243996
240.356000,1.254813
243.357000,1.259093
246.355000,1.272656
249.355000,1.276035
252.355000,1.291551
255.355000,1.302599
258.355000,1.306022
261.355000,1.322054
264.354000,1.328023
267.354000,1.343539
270.354000,1.351894
273.354000,1.361131
276.354000,1.378363
279.352000,1.383792
282.353000,1.408298
285.353000,1.415808
288.353000,1.439131
291.353000,1.447552
294.351000,1.447902
297.351000,1.472518
300.351000,1.474163
303.352000,1.487968
306.352000,1.507913
309.352000,1.519423
312.350000,1.534092
315.350000,1.542016
318.350000,1.566764
321.351000,1.581365
324.351000,1.589289
327.349000,1.605080
330.349000,1.612120
333.349000,1.644738
336.349000,1.653148
339.349000,1.663435
342.348000,1.679626
345.348000,1.694074
348.348000,1.709256
351.348000,1.729105
354.348000,1.731465
357.348000,1.752358
360.347000,1.770521
363.347000,1.774811
366.347000,1.800460
369.347000,1.799145
372.347000,1.821714
375.345000,1.825555
378.345000,1.840676
381.346000,1.864384
384.346000,1.879661
387.346000,1.894503
390.344000,1.901944
393.345000,1.919417
396.345000,1.931945
399.344000,1.948901
402.344000,1.962512
405.344000,1.969974
408.343000,1.982494
411.343000,1.989219
414.343000,2.005757
417.343000,2.002096
420.344000,2.017890
423.342000,2.040037
426.342000,2.053451
429.342000,2.049719
432.342000,2.057048
435.342000,2.078308
438.341000,2.078526
441.341000,2.093416
444.341000,2.092987
447.341000,2.106038
450.341000,2.119629
453.341000,2.128083
456.339000,2.126978
459.340000,2.132271
462.340000,2.142126
465.340000,2.156115
468.340000,2.146767
471.338000,2.152148
474.338000,2.161891
477.339000,2.159906
480.339000,2.169064
483.339000,2.179524
486.337000,2.179684
489.337000,2.183212
492.337000,2.182832
495.337000,2.182468
498.338000,2.195644
501.338000,2.195063
504.336000,2.183957
507.337000,2.204160
510.336000,2.187802
513.336000,2.187625
516.337000,2.176376
519.335000,2.188913
522.335000,2.194118
525.336000,2.190854
528.334000,2.186071
531.334000,2.182420
534.334000,2.185857
537.335000,2.165855
540.335000,2.159967
543.333000,2.158029
546.333000,2.162054
549.333000,2.155208
552.333000,2.156265
555.334000,2.139771
558.332000,2.137391
561.332000,2.125472
564.332000,2.123708
567.332000,2.128977
570.332000,2.117531
573.332000,2.104729
576.331000,2.102016
579.332000,2.086630
582.330000,2.087738
585.330000,2.073345
588.330000,2.064602
591.330000,2.055862
594.331000,2.051894
597.329000,2.039684
600.329000,2.030743
603.329000,2.020670
606.329000,2.013219
609.329000,2.009724
612.329000,1.992496
615.328000,1.985095
618.328000,1.972252
621.328000,1.968880
624.328000,1.955377
627.328000,1.951801
630.326000,1.937516
633.327000,1.922882
636.327000,1.910949
639.327000,1.900884
642.327000,1.891532
645.327000,1.877417
648.325000,1.879868
651.325000,1.860114
654.326000,1.846679
657.326000,1.842036
660.325000,1.830494
663.325000,1.815761
666.325000,1.803972
669.325000,1.797533
672.324000,1.797826
675.324000,1.788008
678.324000,1.766398
681.324000,1.760737
684.323000,1.749206
687.323000,1.745719
690.322000,1.729146
693.323000,1.725315
696.323000,1.702355
699.323000,1.685140
702.321000,1.672929
705.322000,1.663282
708.322000,1.658318
711.321000,1.653233
714.321000,1.641518
717.321000,1.629121
720.321000,1.618861
723.321000,1.614091
726.319000,1.597832
729.320000,1.596788
732.321000,1.583785
735.319000,1.581314
738.319000,1.578482
741.319000,1.563987
744.319000,1.559557
747.319000,1.553812
750.318000,1.541465
753.318000,1.537270
756.319000,1.526477
759.317000,1.516857
762.317000,1.515327
765.317000,1.504605
768.317000,1.504489
771.318000,1.494736
774.316000,1.486856
777.316000,1.482111
780.316000,1.477793
783.316000,1.471579
786.315000,1.474302
789.316000,1.462224
792.316000,1.464117
795.316000,1.454545
798.314000,1.452376
801.314000,1.444883
804.314000,1.441137
807.314000,1.436762
810.315000,1.435188
813.313000,1.432499
816.313000,1.434889
819.313000,1.428654
822.313000,1.429813
825.313000,1.421951
828.313000,1.424065
831.312000,1.421937
834.312000,1.437449
837.312000,1.420156
840.312000,1.421804
843.311000,1.420836
846.311000,1.428841
849.312000,1.429202
852.312000,1.429926
855.310000,1.423473
858.310000,1.432751
861.310000,1.431102
864.310000,1.430847
867.310000,1.430704
870.309000,1.430470
873.309000,1.438594
876.309000,1.438101
879.309000,1.441950
882.309000,1.447334
885.307000,1.450074
888.308000,1.467626
891.308000,1.469220
894.308000,1.463455
897.308000,1.471192
900.308000,1.474969
903.306000,1.475859
906.306000,1.483654
909.307000,1.491327
912.307000,1.497140
915.307000,1.509857
918.305000,1.504296
921.305000,1.510221
924.305000,1.521426
927.306000,1.524839
930.306000,1.545208
933.304000,1.554111
936.304000,1.548132
939.304000,1.569215
942.304000,1.566220
945.304000,1.575973
948.305000,1.581314
951.303000,1.597730
954.303000,1.609740
957.303000,1.610219
960.303000,1.624344
963.303000,1.629984
966.302000,1.640930
969.302000,1.656252
972.302000,1.657486
975.302000,1.672025
978.302000,1.677702
981.300000,1.686554
984.301000,1.692860
987.301000,1.709283
990.301000,1.723326
993.301000,1.733008
996.301000,1.733807
999.299000,1.752609
1002.299000,1.751603
1005.300000,1.766724
1008.300000,1.765575
1011.300000,1.781025
1014.298000,1.793185
1017.298000,1.808462
1020.298000,1.807443
1023.298000,1.812783
1026.299000,1.825320
1029.297000,1.842576
1032.297000,1.847842
1035.297000,1.864951
1038.297000,1.863391
1041.297000,1.868252
1044.298000,1.889077
1047.296000,1.894788
1050.296000,1.897746
1053.296000,1.909375
1056.296000,1.930265
1059.296000,1.924979
1062.294000,1.934919
1065.295000,1.955533
1068.295000,1.954548
1071.295000,1.968509
1074.295000,1.973646
1077.293000,1.980108
1080.293000,1.989912
1083.294000,1.994614
1086.294000,1.998931
1089.294000,1.999788
1092.294000,2.015758
1095.292000,2.030407
1098.292000,2.039333
1101.292000,2.034414
1104.293000,2.045048
1107.293000,2.049104
1110.291000,2.052197
1113.291000,2.068049
1116.291000,2.060454
1119.291000,2.085420
1122.292000,2.072944
1125.290000,2.093861
1128.290000,2.084947
1131.290000,2.080147
1134.290000,2.095064
1137.290000,2.105728
1140.290000,2.099161
1143.289000,2.115301
1146.289000,2.098406
1149.289000,2.109845
1152.289000,2.129531
1155.289000,2.116206
1158.287000,2.121685
1161.288000,2.111946
1164.288000,2.114740
1167.288000,2.122732
1170.288000,2.131160
1173.287000,2.133652
1176.287000,2.122882
1179.287000,2.120013
1182.286000,2.124684
1185.287000,2.120156
1188.287000,2.114887
1191.285000,2.129055
1194.285000,2.111446
1197.285000,2.117412
1200.286000,2.123939
1203.286000,2.113364
1206.284000,2.108832
1209.284000,2.109961
1212.284000,2.099052
1215.284000,2.112874
1218.284000,2.088276
1221.283000,2.083448
1224.283000,2.077210
1227.283000,2.073685
1230.283000,2.070602
1233.283000,2.064568
1236.283000,2.059968
1239.282000,2.052245
1242.282000,2.049083
1245.282000,2.051374
1248.282000,2.037341
1251.282000,2.029414
1254.280000,2.024930
1257.280000,2.031012
1260.281000,2.023893
1263.281000,2.006593
1266.281000,1.999036
1269.279000,1.991483
1272.279000,1.982311
1275.279000,1.982532
1278.280000,1.983902
1281.279000,1.969566
1284.279000,1.956070
1287.279000,1.953422
1290.279000,1.945746
1293.277000,1.933179
1296.277000,1.929510
1299.278000,1.925081
1302.278000,1.911558
1305.278000,1.916671
1308.278000,1.901876
1311.276000,1.890719
1314.276000,1.887701
1317.277000,1.874001
1320.277000,1.884077
1323.277000,1.871924
1326.275000,1.855854
1329.275000,1.852557
1332.275000,1.846621
1335.275000,1.832225
1338.275000,1.828778
1341.275000,1.828057
1344.275000,1.812198
1347.275000,1.805267
1350.273000,1.802214
1353.273000,1.805128
1356.275000,1.797584
1359.273000,1.785492
1362.273000,1.781991
1365.273000,1.773611
1368.273000,1.757256
1371.273000,1.758001
1374.271000,1.759398
1377.272000,1.746742
1380.272000,1.734987
1383.272000,1.732009
1386.272000,1.730479
1389.270000,1.711099
1392.270000,1.715807
1395.271000,1.713274
1398.271000,1.703395
1401.271000,1.699738
1404.271000,1.704510
1407.269000,1.683087
1410.269000,1.682421
1413.269000,1.678338
1416.270000,1.677964
1419.270000,1.669540
1422.268000,1.670924
1425.268000,1.662258
1428.269000,1.652893
1431.267000,1.650156
1434.268000,1.652529
1437.268000,1.649731
1440.268000,1.647525
1443.268000,1.642916
1446.266000,1.633254
1449.266000,1.633254
1452.266000,1.631113
1455.267000,1.631215
1458.267000,1.625320
1461.265000,1.623508
1464.265000,1.625697
1467.265000,1.617110
1470.265000,1.620601
1473.265000,1.614214
1476.265000,1.614751
1479.265000,1.611209
1482.265000,1.613735
1485.263000,1.610002
1488.263000,1.617362
1491.263000,1.604729
1494.264000,1.606976
1497.264000,1.606096
1500.262000,1.605443
1503.262000,1.604899
1506.262000,1.605906
1509.262000,1.605232
1512.263000,1.605861
1515.263000,1.608299
1518.261000,1.611335
1521.261000,1.606191
1524.261000,1.611413
1527.261000,1.614486
1530.261000,1.613656
1533.260000,1.615642
1536.260000,1.622495
1539.260000,1.627203
1542.260000,1.626095
1545.260000,1.636793
1548.259000,1.620584
1551.260000,1.628029
1554.260000,1.627696
1557.259000,1.636215
1560.259000,1.643711
1563.259000,1.639788
1566.257000,1.646866
1569.257000,1.651207
1572.258000,1.652271
1575.258000,1.653039
1578.258000,1.656044
1581.256000,1.658227
1584.256000,1.669159
1587.256000,1.669860
1590.257000,1.675340
1593.257000,1.686741
1596.255000,1.675173
1599.255000,1.683519
1602.255000,1.699564
1605.255000,1.696984
1608.255000,1.706213
1611.256000,1.698099
1614.254000,1.709888
1617.254000,1.725706
1620.254000,1.723265
1623.254000,1.734742
1626.254000,1.734987
1629.253000,1.735269
1632.253000,1.741697
1635.253000,1.742292
1638.253000,1.754129
1641.253000,1.756930
1644.251000,1.773730
1647.251000,1.769233
1650.252000,1.770059
1653.252000,1.780740
1656.252000,1.778636
1659.252000,1.789385
1662.250000,1.791727
1665.250000,1.800103
1668.251000,1.805838
1671.251000,1.810907
1674.251000,1.815119
1677.249000,1.825501
1680.249000,1.825803
1683.249000,1.827030
1686.249000,1.839146
1689.250000,1.838874
1692.250000,1.845418
1695.248000,1.848440
1698.248000,1.856283
1701.248000,1.867328
1704.248000,1.863112
1707.249000,1.869830
1710.247000,1.884644
1713.247000,1.874052
1716.247000,1.886082
1719.247000,1.884233
1722.247000,1.894982
1725.246000,1.899609
1728.247000,1.900734
1731.247000,1.912262
1734.245000,1.908090
1737.245000,1.926767
1740.245000,1.928327
1743.244000,1.925978
1746.245000,1.923534
1749.245000,1.929874
1752.245000,1.939372
1755.245000,1.928814
1758.243000,1.958984
1761.243000,1.947912
1764.243000,1.960915
1767.244000,1.961989
1770.244000,1.951835
1773.242000,1.968822
1776.242000,1.969974
1779.242000,1.982328
1782.242000,1.974098
1785.243000,1.982389
1788.243000,1.978028
1791.241000,1.977321
1794.241000,1.991993
1797.241000,1.993791
1800.241000,1.989950
1803.241000,1.991959
1806.240000,1.990052
1809.240000,1.997241
1812.240000,1.999261
1815.240000,2.006777
1818.240000,1.994634
1821.238000,2.017298
1824.239000,2.010285
1827.239000,2.006444
1830.239000,2.027398
1833.239000,2.017495
1836.237000,2.012546
1839.237000,2.013460
1842.237000,2.010166
1845.238000,2.018066
1848.238000,2.024056
1851.238000,2.014419
1854.236000,2.016136
1857.236000,2.017964
1860.236000,2.020531
1863.237000,2.009136
1866.237000,2.020079
1869.235000,2.017210
1872.235000,2.011023
1875.235000,2.012083
1878.235000,2.017801
1881.235000,1.995392
1884.234000,1.993434
1887.234000,2.000257
1890.234000,1.992550
1893.234000,2.012787
1896.234000,1.991544
1899.234000,1.991007
1902.233000,1.996840
1905.233000,1.995436
1908.233000,2.003857
1911.233000,1.990565
1914.233000,2.001725
1917.231000,1.974482
1920.231000,1.987699
1923.232000,1.983960
1926.232000,1.970059
1929.232000,1.965436
1932.230000,1.971018
1935.230000,1.967754
1938.230000,1.964331
1941.231000,1.967938
1944.231000,1.960248
1947.231000,1.947732
1950.229000,1.946103
1953.229000,1.933665
1956.229000,1.947324
1959.229000,1.932611
1962.230000,1.937081
1965.228000,1.920393
1968.229000,1.924704
1971.229000,1.913268
1974.227000,1.916001
1977.227000,1.925084
1980.228000,1.919897
1983.228000,1.918792
1986.228000,1.899130
1989.226000,1.896318
1992.226000,1.902781
1995.226000,1.887034
1998.226000,1.888261
2001.227000,1.878692
2004.225000,1.876234
2007.225000,1.882306
2010.225000,1.878590
2013.225000,1.876452
2016.225000,1.876129
2019.226000,1.857207
2022.224000,1.849300
2025.224000,1.847978
2028.224000,1.857374
2031.224000,1.853040
2034.224000,1.850548
2037.222000,1.843239
2040.223000,1.850646
2043.223000,1.835481
2046.223000,1.846247
2049.223000,1.832456
2052.221000,1.817270
2055.221000,1.812443
2058.222000,1.807636
2061.222000,1.814847
2064.222000,1.810475
2067.222000,1.817423
2070.220000,1.804937
2073.220000,1.800011
2076.220000,1.802558
2079.221000,1.784272
2082.221000,1.784962
2085.219000,1.793763
2088.219000,1.793906
2091.219000,1.779914
2094.219000,1.778163
2097.219000,1.782300
2100.218000,1.777609
2103.218000,1.765181
2106.218000,1.757049
2109.218000,1.756821
2112.218000,1.763807
2115.218000,1.760221
2118.217000,1.768155
2121.217000,1.767271
2124.217000,1.765544
2127.217000,1.757885
2130.216000,1.754448
2133.216000,1.765826
2136.216000,1.749754
2139.215000,1.753316
2142.215000,1.753673
2145.215000,1.744488
2148.215000,1.748166
2151.215000,1.741826
2154.215000,1.748469
2157.215000,1.745039
2160.215000,1.744060
2163.213000,1.738760
2166.213000,1.743339
2169.213000,1.732726
2172.213000,1.738090
2175.213000,1.740548
2178.214000,1.726077
2181.212000,1.734670
2184.212000,1.732199
2187.212000,1.741717
2190.212000,1.730088
2193.212000,1.730523
2196.211000,1.729836
2199.211000,1.730989
2202.211000,1.733501
2205.210000,1.734392
2208.210000,1.733739
2211.210000,1.729823
2214.210000,1.729945
2217.211000,1.731757
2220.209000,1.743614
2223.209000,1.727365
2226.209000,1.736588
2229.209000,1.733467
2232.209000,1.735000
2235.210000,1.736088
2238.208000,1.735048
2241.208000,1.736221
2244.208000,1.734225
2247.208000,1.749053
2250.208000,1.750753
2253.206000,1.744940
2256.207000,1.743553
2259.207000,1.743822
2262.207000,1.752395
2265.207000,1.755900
2268.205000,1.751018
2271.206000,1.746358
2274.207000,1.757889
2277.205000,1.749917
2280.205000,1.761526
2283.205000,1.770052
2286.205000,1.767907
2289.205000,1.771211
2292.203000,1.768039
2295.205000,1.764830
2298.205000,1.785530
2301.203000,1.776222
2304.203000,1.784731
2307.203000,1.788307
2310.203000,1.791968
2313.204000,1.787787
2316.202000,1.797050
2319.202000,1.802272
2322.202000,1.796738
2325.202000,1.797197
2328.202000,1.817716
2331.201000,1.810013
2334.202000,1.821418
2337.202000,1.816098
2340.200000,1.828805
2343.200000,1.825769
2346.200000,1.832398
2349.199000,1.831875
2352.200000,1.836702
2355.200000,1.841580
2358.200000,1.841264
2361.200000,1.846105
2364.198000,1.851551
2367.198000,1.850854
2370.198000,1.857411
2373.199000,1.865628
2376.199000,1.866634
2379.199000,1.865896
2382.197000,1.872988
2385.197000,1.877492
2388.197000,1.887085
2391.198000,1.891450
2394.198000,1.891899
2397.196000,1.894010
2400.196000,1.901353
2403.196000,1.896339
2406.196000,1.905956
2409.196000,1.904198
2412.195000,1.920349
2415.195000,1.923969
2418.195000,1.924700
2421.195000,1.925791
2424.195000,1.933702
2427.194000,1.931581
2430.195000,1.928722
2433.195000,1.942252
2436.193000,1.949809
2439.193000,1.945549
2442.193000,1.956067
2445.193000,1.951097
2448.193000,1.958188
2451.193000,1.958311
2454.193000,1.977545
2457.193000,1.966850
2460.191000,1.967622
2463.191000,1.970168
2466.191000,1.976015
2469.192000,1.985265
2472.191000,1.979965
2475.191000,1.983936
2478.191000,1.986502
2481.191000,1.999958
2484.190000,1.988185
2487.190000,2.004652
2490.191000,1.990708
2493.190000,1.996048
2496.190000,2.004353
2499.188000,2.008456
2502.188000,2.003721
2505.188000,2.003578
2508.188000,2.018321
2511.188000,2.008596
2514.188000,2.008286
2517.188000,2.010054
2520.188000,2.013416
2523.186000,2.029441
2526.186000,2.009666
2529.187000,2.019494
2532.187000,2.014742
2535.187000,2.013423
2538.187000,2.013103
2541.185000,2.025093
2544.185000,2.022833
2547.186000,2.027299
2550.186000,2.017574
2553.186000,2.016017
2556.184000,2.013226
2559.184000,2.015048
2562.184000,2.013804
2565.184000,2.015214
2568.185000,2.029139
2571.183000,2.009422
2574.183000,2.020718
2577.183000,2.009428
2580.182000,2.012403
2583.182000,2.016523
2586.183000,2.003551
2589.183000,2.006729
2592.183000,2.013545
2595.181000,1.999403
2598.181000,1.998407
2601.181000,1.991394
2604.181000,1.990901
2607.182000,1.984340
2610.182000,1.975060
2613.181000,1.993815
2616.181000,1.974179
2619.179000,1.968682
2622.179000,1.969118
2625.180000,1.976032
2628.180000,1.974516
2631.180000,1.968543
2634.180000,1.960741
2637.178000,1.957828
2640.178000,1.942388
2643.178000,1.948126
2646.178000,1.941755
2649.178000,1.937591
2652.178000,1.937836
2655.178000,1.936010
2658.178000,1.932672
2661.176000,1.917728
2664.177000,1.913836
2667.177000,1.916970
2670.177000,1.925040
2673.177000,1.906081
2676.175000,1.904654
2679.175000,1.898001
2682.175000,1.896702
2685.176000,1.897528
2688.176000,1.888387
2691.176000,1.874895
2694.174000,1.875874
2697.174000,1.882632
2700.174000,1.879280
2703.175000,1.860702
2706.175000,1.864139
2709.173000,1.854274
2712.173000,1.852224
2715.173000,1.856357
2718.173000,1.853444
2721.173000,1.849691
2724.172000,1.851435
2727.172000,1.841556
2730.172000,1.836246
2733.172000,1.841043
2736.172000,1.837565
2739.170000,1.833547
2742.171000,1.831905
2745.171000,1.820915
2748.171000,1.814904
2751.171000,1.816540
2754.171000,1.813997
2757.169000,1.817383
2760.169000,1.815139
2763.170000,1.811559
2766.170000,1.812620
2769.170000,1.804084
2772.168000,1.799508
2775.168000,1.801432
2778.168000,1.802697
2781.169000,1.783789
2784.169000,1.792655
2787.169000,1.796683
2790.167000,1.796476
2793.167000,1.787865
2796.167000,1.792716
2799.167000,1.791995
2802.168000,1.792281
2805.166000,1.790469
2808.166000,1.788865
2811.166000,1.791720
2814.166000,1.790326
2817.166000,1.786390
2820.165000,1.786767
2823.165000,1.797142
2826.165000,1.783453
2829.165000,1.795242
2832.165000,1.792101
2835.165000,1.787046
2838.163000,1.784574
2841.164000,1.792002
2844.164000,1.790761
2847.164000,1.792308
2850.164000,1.789929
2853.162000,1.789381
2856.162000,1.798876
2859.163000,1.787777
2862.163000,1.794640
2865.163000,1.793937
2868.162000,1.793501
2871.162000,1.793807
2874.162000,1.805957
2877.160000,1.807232
2880.161000,1.796874
2883.162000,1.799199
2886.160000,1.815901
2889.160000,1.810240
2892.160000,1.811032
2895.159000,1.807130
2898.160000,1.809506
2901.160000,1.807711
2904.160000,1.819524
2907.160000,1.814643
2910.158000,1.823036
2913.158000,1.813021
2916.158000,1.819297
2919.158000,1.821187
2922.158000,1.816094
2925.158000,1.830692
2928.158000,1.830634
2931.156000,1.831732
2934.156000,1.836229
2937.157000,1.843902
2940.157000,1.837552
2943.157000,1.836882
2946.157000,1.843501
2949.155000,1.834985
2952.155000,1.842552
2955.155000,1.850459
2958.156000,1.846764
2961.156000,1.861769
2964.154000,1.846989
2967.154000,1.859332
2970.154000,1.859924
2973.154000,1.858863
2976.155000,1.866627
2979.153000,1.859029
2982.153000,1.863167
2985.153000,1.866508
2988.153000,1.872206
2991.153000,1.879025
2994.152000,1.890213
2997.153000,1.885321
3000.153000,1.887748
3003.151000,1.893826
3006.151000,1.897763
3009.151000,1.895013
3012.151000,1.901849
3015.152000,1.909175
3018.152000,1.907567
3021.150000,1.904939
3024.150000,1.907050
3027.150000,1.908696
3030.149000,1.915002
3033.149000,1.911959
3036.150000,1.929089
3039.149000,1.930578
3042.150000,1.925377
3045.148000,1.937635
3048.148000,1.939984
3051.148000,1.927746
3054.149000,1.936928
3057.149000,1.930778
3060.147000,1.949244
3063.147000,1.952664
3066.147000,1.945131
3069.147000,1.946515
3072.147000,1.954531
3075.146000,1.955921
3078.146000,1.950091
3081.146000,1.954762
3084.146000,1.972024
3087.146000,1.961513
3090.146000,1.960905
3093.145000,1.969532
3096.145000,1.965276
3099.145000,1.970331
3102.145000,1.976868
3105.145000,1.979799
3108.143000,1.972803
3111.143000,1.975328
3114.144000,1.977253
3117.144000,1.987145
3120.144000,1.991228
3123.142000,1.980152
3126.142000,1.978269
3129.142000,1.986727
3132.143000,1.975730
3135.143000,2.000600
3138.143000,1.985330
3141.141000,1.987859
3144.141000,1.982182
3147.141000,1.997102
3150.141000,1.980383
3153.142000,2.003017
3156.140000,1.986319
3159.140000,2.003806
3162.140000,1.988699
3165.140000,1.997697
3168.140000,2.001909
3171.139000,1.986734
3174.139000,2.004489
3177.139000,2.001756
3180.139000,1.997653
3183.139000,2.004248
3186.138000,1.990714
3189.138000,1.988478
3192.139000,1.991656
3195.137000,2.003928
3198.137000,2.007246
3201.137000,1.989229
3204.137000,2.000658
3207.137000,1.996786
3210.137000,1.992655
3213.137000,1.997122
3216.137000,1.983905
3219.135000,1.987743
3222.136000,1.986271
3225.136000,1.977861
3228.134000,1.985792
3231.135000,1.978694
3234.135000,1.983762
3237.135000,1.993822
3240.135000,1.985772
3243.133000,1.980618
3246.133000,1.982491
3249.134000,1.978633
3252.134000,1.980315
3255.134000,1.988138
3258.134000,1.976148
3261.132000,1.976430
3264.132000,1.973659
3267.132000,1.982270
3270.132000,1.969645
3273.132000,1.969206
3276.131000,1.963995
3279.131000,1.970709
3282.131000,1.969464
3285.131000,1.968400
3288.131000,1.960044
3291.130000,1.966867
3294.130000,1.953181
3297.130000,1.956458
3300.130000,1.945304
3303.130000,1.957379
3306.130000,1.947351
3309.129000,1.956737
3312.129000,1.956169
3315.129000,1.945825
3318.129000,1.946423
3321.129000,1.948140
3324.127000,1.948568
3327.128000,1.951848
3330.129000,1.938720
3333.127000,1.939828
3336.127000,1.933348
3339.127000,1.929820
3342.127000,1.943397
3345.127000,1.933974
3348.126000,1.929901
3351.126000,1.949047
3354.126000,1.934362
3357.126000,1.930354
3360.126000,1.921447
3363.124000,1.933828
3366.125000,1.923663
3369.125000,1.923181
3372.125000,1.917096
3375.125000,1.922185
3378.123000,1.924479
3381.123000,1.914801
3384.123000,1.915668
3387.124000,1.922280
3390.124000,1.910266
3393.124000,1.909940
3396.122000,1.907060
3399.122000,1.910501
3402.122000,1.913288
3405.122000,1.905126
3408.122000,1.897491
3411.122000,1.904728
3414.122000,1.902713
3417.122000,1.907013
3420.120000,1.901750
3423.120000,1.900584
3426.121000,1.900330
3429.121000,1.901601
3432.121000,1.901659
3435.119000,1.903253
3438.119000,1.896801
3441.119000,1.909440
3444.119000,1.907989
3447.120000,1.897066
3450.120000,1.900659
3453.119000,1.896128
3456.119000,1.904609
3459.117000,1.898949
3462.117000,1.906098
3465.118000,1.913781
3468.118000,1.912748
3471.118000,1.906941
3474.118000,1.908492
3477.116000,1.915790
3480.116000,1.913805
3483.116000,1.907710
3486.117000,1.905973
3489.117000,1.905198
3492.115000,1.904541
3495.115000,1.903219
3498.115000,1.909930
3501.115000,1.904929
3504.116000,1.905500
3507.114000,1.912068
3510.114000,1.912680
3513.114000,1.909579
3516.114000,1.915539
3519.114000,1.917507
3522.114000,1.919081
3525.113000,1.908379
3528.113000,1.918449
3531.113000,1.935698
3534.113000,1.928198
3537.113000,1.922021
3540.111000,1.932522
3543.112000,1.917759
3546.112000,1.924432
3549.112000,1.929534
3552.112000,1.913587
3555.110000,1.932390
3558.110000,1.942745
3561.110000,1.919689
3564.111000,1.933165
3567.111000,1.935738
3570.111000,1.921379
3573.109000,1.936544
3576.110000,1.931928
3579.108000,1.932349
3582.109000,1.935521
3585.109000,1.935718
3588.109000,1.936663
3591.109000,1.945573
3594.109000,1.933998
3597.107000,1.944138
3600.107000,1.937210
3603.108000,1.948986
3606.108000,1.942544
3609.107000,1.940545
3612.107000,1.948439
3615.106000,1.952712
3618.106000,1.952243
3621.107000,1.956849
3624.107000,1.951094
3627.105000,1.947477
3630.105000,1.933107
3633.105000,1.931054
3636.105000,1.930993
3639.105000,1.937635
3642.106000,1.949764
3645.104000,1.951906
3648.104000,1.934688
3651.104000,1.941817
3654.104000,1.945053
3657.104000,1.954486
3660.103000,1.937781
3663.103000,1.942972
3666.103000,1.939930
3669.103000,1.938407
3672.103000,1.938386
3675.101000,1.931591
3678.101000,1.942646
3681.102000,1.929555
3684.101000,1.926852
3687.101000,1.927229
3690.101000,1.922181
3693.101000,1.933699
3696.101000,1.941436
3699.100000,1.928463
3702.100000,1.924486
3705.100000,1.931295
3708.100000,1.931033
3711.099000,1.923524
3714.099000,1.924214
3717.099000,1.923031
3720.100000,1.939311
3723.098000,1.937135
3726.098000,1.921716
3729.098000,1.927688
3732.098000,1.926298
3735.098000,1.915586
3738.097000,1.930901
3741.097000,1.926488
3744.097000,1.920726
3747.097000,1.927508
3750.097000,1.924408
3753.097000,1.922280
3756.095000,1.929041
3759.096000,1.924418
3762.096000,1.922786
3765.096000,1.929388
3768.096000,1.924343
3771.094000,1.933994
3774.094000,1.921267
3777.095000,1.917116
3780.095000,1.926716
3783.095000,1.922321
3786.095000,1.921474
3789.093000,1.919458
3792.093000,1.914587
3795.093000,1.916518
3798.094000,1.921716
3801.093000,1.918564
3804.093000,1.925706
3807.093000,1.917371
3810.093000,1.912625
3813.091000,1.921474
3816.092000,1.916239
3819.092000,1.909620
3822.092000,1.922161
3825.092000,1.920764
3828.090000,1.919577
3831.090000,1.921828
3834.090000,1.932434
3837.091000,1.921692
3840.090000,1.933923
3843.090000,1.914641
3846.090000,1.916086
3849.090000,1.916946
3852.089000,1.914624
3855.090000,1.931829
3858.088000,1.929748
3861.088000,1.922062
3864.088000,1.923912
3867.088000,1.921056
3870.088000,1.925642
3873.088000,1.919214
3876.087000,1.939542
3879.087000,1.923493
3882.087000,1.922599
3885.087000,1.931645
3888.087000,1.917330
3891.085000,1.927505
3894.086000,1.923636
3897.086000,1.929646
3900.086000,1.914050
3903.086000,1.933967
3906.086000,1.921359
3909.084000,1.921923
3912.084000,1.931227
3915.085000,1.923381
3918.085000,1.922504
3921.085000,1.933967
3924.083000,1.918513
3927.083000,1.926900
3930.083000,1.928385
3933.084000,1.926431
3936.083000,1.926723
3939.083000,1.942272
3942.083000,1.921134
3945.083000,1.938369
3948.081000,1.920655
3951.081000,1.937462
3954.082000,1.918265
3957.081000,1.926108
3960.081000,1.939909
3963.081000,1.950591
3966.081000,1.922219
3969.081000,1.938954
3972.080000,1.925703
3975.081000,1.932250
3978.079000,1.928569
3981.079000,1.930741
3984.079000,1.937968
3987.079000,1.927444
3990.079000,1.941140
3993.080000,1.924721
3996.078000,1.937601
3999.078000,1.946583
4002.078000,1.933396
4005.078000,1.930656
4008.078000,1.941572
4011.077000,1.937363
4014.077000,1.946481
4017.077000,1.941082
4020.076000,1.937564
4023.076000,1.933627
4026.076000,1.942255
4029.076000,1.942585
4032.077000,1.953395
4035.075000,1.934460
4038.075000,1.947698
4041.075000,1.934491
4044.075000,1.945835
4047.075000,1.930761
4050.074000,1.956308
4053.074000,1.960837
4056.074000,1.940294
4059.074000,1.944808
4062.074000,1.946011
4065.074000,1.941354
4068.073000,1.941949
4071.073000,1.943795
4074.073000,1.956536
4077.073000,1.943078
4080.073000,1.948853
4083.071000,1.934657
4086.071000,1.952127
4089.072000,1.957277
4092.072000,1.959732
4095.072000,1.947980
4098.070000,1.946032
4101.070000,1.942146
4104.070000,1.948303
4107.070000,1.951678
4110.071000,1.946124
4113.071000,1.951889
4116.069000,1.946022
4119.069000,1.955972
4122.069000,1.961319
4125.069000,1.959885
4128.070000,1.958906
4131.068000,1.958668
4134.068000,1.956390
4137.068000,1.965093
4140.068000,1.964093
4143.068000,1.965664
4146.068000,1.973795
4149.067000,1.959599
4152.067000,1.960432
4155.067000,1.964851
4158.067000,1.965837
4161.067000,1.980026
4164.065000,1.968009
4167.066000,1.968094
4170.066000,1.973737
4173.066000,1.971681
4176.066000,1.972140
4179.064000,1.978609
4182.064000,1.969570
4185.064000,1.969220
4188.065000,1.965252
4191.065000,1.970386
4194.063000,1.963420
4197.063000,1.970049
4200.064000,1.963597
4203.062000,1.960752
4206.063000,1.963736
4209.064000,1.974961
4212.062000,1.958484
4215.062000,1.962200
4218.062000,1.959167
4221.062000,1.969617
4224.062000,1.954112
4227.061000,1.959827
4230.061000,1.960939
4233.061000,1.955567
4236.061000,1.946732
4239.061000,1.949187
4242.061000,1.943404
4245.060000,1.937067
4248.060000,1.946827
4251.060000,1.950325
4254.060000,1.949934
4257.060000,1.940229
4260.058000,1.947446
4263.058000,1.945794
4266.059000,1.937275
4269.059000,1.941443
4272.059000,1.932805
4275.057000,1.927036
4278.057000,1.937496
4281.057000,1.934413
4284.058000,1.928667
4287.057000,1.931999
4290.057000,1.928674
4293.057000,1.943316
4296.057000,1.929449
4299.055000,1.921515
4302.055000,1.928752
4305.056000,1.928759
4308.056000,1.926913
4311.056000,1.922382
4314.054000,1.940929
4317.054000,1.930724
4320.054000,1.916848
4323.055000,1.920312
4326.055000,1.922977
4329.055000,1.924068
4332.053000,1.919033
4335.053000,1.916548
4338.053000,1.918421
4341.053000,1.914985
4344.054000,1.920706
4347.052000,1.910378
4350.053000,1.918153
4353.053000,1.919288
4356.051000,1.916011
4359.051000,1.911429
4362.051000,1.915539
4365.051000,1.916881
4368.051000,1.922929
4371.051000,1.909899
4374.051000,1.915821
4377.051000,1.925642
4380.049000,1.919146
4383.050000,1.909722
4386.050000,1.915658
4389.050000,1.901642
4392.050000,1.919122
4395.048000,1.916161
4398.048000,1.915576
4401.049000,1.916977
4404.049000,1.915440
4407.049000,1.915787
4410.047000,1.913530
4413.047000,1.920947
4416.047000,1.907319
4419.047000,1.917130
4422.048000,1.911670
4425.048000,1.909168
4428.046000,1.928943
4431.046000,1.914995
4434.046000,1.906493
4437.046000,1.917510
4440.047000,1.906704
4443.045000,1.915923
4446.045000,1.923120
4449.046000,1.918792
4452.044000,1.916297
4455.044000,1.908930
4458.044000,1.916766
4461.045000,1.912809
4464.045000,1.927977
4467.043000,1.908475
4470.043000,1.929130
4473.043000,1.915739
4476.043000,1.920760
4479.043000,1.915984
4482.043000,1.928253
4485.043000,1.919887
4488.042000,1.907863
4491.042000,1.923344
4494.042000,1.913482
4497.042000,1.916776
4500.041000,1.924721
4503.041000,1.916531
4506.041000,1.912598
4509.041000,1.915522
4512.041000,1.914532
4515.039000,1.919842
4518.040000,1.913659
4521.040000,1.906333
4524.040000,1.921675
4527.040000,1.915294
4530.038000,1.908798
4533.038000,1.930286
4536.038000,1.928120
4539.039000,1.920172
4542.039000,1.910793
4545.039000,1.918350
4548.037000,1.916725
4551.037000,1.908444
4554.037000,1.917735
4557.037000,1.911650
4560.038000,1.930649
4563.036000,1.918687
4566.036000,1.902145
4569.036000,1.900132
4572.036000,1.922936
4575.036000,1.927083
4578.035000,1.926720
4581.035000,1.908464
4584.035000,1.912411
4587.035000,1.901591
4590.035000,1.905949
4593.035000,1.913448
4596.033000,1.915117
4599.034000,1.898596
4602.034000,1.917279
4605.034000,1.899687
4608.034000,1.914244
4611.032000,1.906975
4614.032000,1.906068
4617.033000,1.904552
4620.033000,1.904739
4623.033000,1.905653
4626.031000,1.902614
4629.031000,1.904790
4632.031000,1.902679
4635.031000,1.902998
4638.032000,1.904191
4641.032000,1.898324
4644.030000,1.904535
4647.030000,1.896903
4650.030000,1.896373
4653.030000,1.879708
4656.031000,1.892280
4659.029000,1.900710
4662.029000,1.888853
4665.029000,1.884090
4668.029000,1.893194
4671.029000,1.883087
4674.027000,1.900520
4677.028000,1.886643
4680.028000,1.884546
4683.028000,1.884050
4686.028000,1.882078
4689.028000,1.873511
4692.026000,1.878437
4695.027000,1.877206
4698.027000,1.883937
4701.027000,1.865322
4704.027000,1.871641
4707.025000,1.867487
4710.025000,1.866620
4713.025000,1.865301
4716.026000,1.873280
4719.026000,1.856300
4722.024000,1.873287
4725.024000,1.864499
4728.024000,1.868500
4731.024000,1.860780
4734.025000,1.859567
4737.023000,1.857904
4740.023000,1.855457
4743.023000,1.861555
4746.023000,1.853386
4749.023000,1.856055
4752.023000,1.853832
4755.022000,1.859971
4758.022000,1.856514
4761.022000,1.861684
4764.022000,1.859050
4767.022000,1.849113
4770.020000,1.858265
4773.021000,1.860743
4776.021000,1.861042
4779.021000,1.855603
4782.021000,1.857816
4785.021000,1.862058
4788.019000,1.858758
4791.019000,1.873178
4794.020000,1.865478
4797.020000,1.859016
4800.020000,1.868354
4803.018000,1.870866
4806.018000,1.868531
4809.018000,1.874851
4812.019000,1.865244
4815.019000,1.867022
4818.017000,1.869473
4821.017000,1.870040
4824.017000,1.868011
4827.016000,1.880449
4830.016000,1.878090
4833.017000,1.879178
4836.017000,1.885032
4839.017000,1.887497
4842.015000,1.886011
4845.015000,1.888064
4848.015000,1.888452
4851.016000,1.894782
4854.016000,1.903199
4857.014000,1.903552
4860.014000,1.900697
4863.014000,1.897722
4866.014000,1.902522
4869.013000,1.905041
4872.015000,1.927090
4875.013000,1.908376
4878.013000,1.914444
4881.013000,1.917252
4884.013000,1.921620
4887.013000,1.922433
4890.012000,1.926974
4893.012000,1.928827
4896.012000,1.941463
4899.012000,1.922817
4902.012000,1.941902
4905.012000,1.927110
4908.010000,1.939376
4911.011000,1.924170
4914.011000,1.953521
4917.011000,1.936656
4920.011000,1.947313
4923.009000,1.931200
4926.009000,1.942041
4929.010000,1.941307
4932.010000,1.950077
4935.010000,1.947983
4938.008000,1.963791
4941.008000,1.954663
4944.008000,1.950101
4947.008000,1.954089
4950.009000,1.953433
4953.007000,1.951692
4956.007000,1.956924
4959.007000,1.964919
4962.007000,1.954898
4965.007000,1.956543
4968.007000,1.959759
4971.007000,1.966745
4974.007000,1.960106
4977.005000,1.955843
4980.005000,1.965773
4983.005000,1.957403
4986.005000,1.964997
4989.006000,1.962098
4992.005000,1.978007
4995.005000,1.969685
4998.005000,1.972983
5001.003000,1.967856
5004.003000,1.962900
5007.004000,1.966694
5010.004000,1.962210
5013.004000,1.966786
5016.003000,1.966048
5019.002000,1.976294
5022.002000,1.952763
5025.002000,1.969560
5028.003000,1.972034
5031.002000,1.953800
5034.002000,1.959800
5037.002000,1.958576
5040.002000,1.963502
5043.000000,1.964114
5046.001000,1.947106
5049.001000,1.952933
5052.001000,1.952436
5055.001000,1.953742
5057.999000,1.949523
5060.999000,1.937907
5063.999000,1.950747
5066.999000,1.945029
5069.999000,1.942847
5072.999000,1.936609
5075.999000,1.939614
5078.999000,1.947082
5081.997000,1.929256
5084.998000,1.925808
5087.998000,1.913686
5090.998000,1.914995
5093.998000,1.930578
5096.996000,1.924520
5099.996000,1.924411
5102.996000,1.912438
5105.997000,1.909953
5108.997000,1.918517
5111.997000,1.916735
5114.995000,1.926842
5117.995000,1.910864
5120.995000,1.921328
5123.996000,1.902913
5126.996000,1.904875
5129.994000,1.891202
5132.994000,1.899959
5135.994000,1.912581
5138.994000,1.902573
5141.994000,1.901050
5144.995000,1.894102
5147.993000,1.888516
5150.993000,1.893398
5153.993000,1.892868
5156.993000,1.886225
5159.993000,1.891396
5162.992000,1.891535
5165.992000,1.879062
5168.992000,1.881619
5171.992000,1.874905
5174.992000,1.866413
5177.990000,1.869935
5180.990000,1.859244
5183.991000,1.857048
5186.991000,1.865563
5189.991000,1.869167
5192.989000,1.869969
5195.989000,1.868701
5198.989000,1.848902
5201.990000,1.858696
5204.990000,1.859570
5207.990000,1.857486
5210.988000,1.856266
5213.988000,1.853104
5216.988000,1.867515
5219.987000,1.844204
5222.988000,1.855137
5225.988000,1.848998
5228.988000,1.847352
5231.988000,1.851119
5234.987000,1.848073
5237.987000,1.842216
5240.986000,1.841641
5243.986000,1.835743
5246.986000,1.844357
5249.986000,1.844701
5252.986000,1.844126
5255.986000,1.845622
5258.984000,1.851238
5261.985000,1.842824
5264.985000,1.836620
5267.985000,1.836865
5270.985000,1.840356
5273.983000,1.834380
5276.983000,1.843610
5279.984000,1.835808
5282.984000,1.838062
5285.984000,1.840723
5288.982000,1.837371
5291.982000,1.835794
5294.982000,1.842613
5297.981000,1.834319
5300.982000,1.844374
5303.982000,1.844708
5306.982000,1.837270
5309.982000,1.840326
5312.980000,1.845037
5315.980000,1.844412
5318.981000,1.845602
5321.981000,1.860009
5324.981000,1.849198
5327.981000,1.845234
5330.979000,1.866869
5333.979000,1.850680
5336.979000,1.855603
5339.980000,1.857024
5342.980000,1.860709
5345.978000,1.857568
5348.978000,1.861786
5351.978000,1.868432
5354.978000,1.862820
5357.979000,1.867022
5360.977000,1.865529
5363.977000,1.867028
5366.977000,1.869884
5369.977000,1.871176
5372.977000,1.872298
5375.977000,1.887214
5378.976000,1.878474
5381.976000,1.874364
5384.976000,1.883509
5387.975000,1.885902
5390.975000,1.893048
5393.975000,1.892837
5396.975000,1.888673
5399.975000,1.897008
5402.975000,1.883788
5405.975000,1.902563
5408.973000,1.898569
5411.973000,1.905966
5414.973000,1.896254
5417.974000,1.892497
5420.974000,1.909695
5423.974000,1.909124
5426.972000,1.912969
5429.972000,1.906992
5432.972000,1.903369
5435.972000,1.908332
5438.972000,1.898864
5441.972000,1.919611
5444.972000,1.917701
5447.972000,1.910813
5450.970000,1.931550
5453.970000,1.906224
5456.971000,1.930976
5459.971000,1.933862
5462.971000,1.919808
5465.969000,1.919367
5468.969000,1.933114
5471.969000,1.928960
5474.970000,1.934606
5477.970000,1.933396
5480.968000,1.927097
5483.968000,1.937428
5486.968000,1.926679
5489.968000,1.931540
5492.968000,1.930126
5495.969000,1.938206
5498.967000,1.943312
5501.967000,1.941116
5504.967000,1.950594
5507.967000,1.942537
5510.967000,1.947626
5513.966000,1.932142
5516.966000,1.937346
5519.966000,1.955833
5522.966000,1.953402
5525.966000,1.960823
5528.964000,1.946508
5531.964000,1.949054
5534.965000,1.943744
5537.965000,1.937594
5540.965000,1.946181
5543.965000,1.951434
5546.963000,1.951124
5549.963000,1.945440
5552.963000,1.941439
5555.963000,1.948717
5558.963000,1.945498
5561.963000,1.939960
5564.963000,1.945474
5567.963000,1.949343
5570.961000,1.954520
5573.962000,1.947772
5576.962000,1.944985
5579.961000,1.937652
5582.961000,1.958566
5585.961000,1.952895
5588.961000,1.937550
5591.962000,1.938203
5594.960000,1.939753
5597.960000,1.939498
5600.960000,1.932662
5603.960000,1.930391
5606.960000,1.940059
5609.958000,1.914740
5612.959000,1.917728
5615.959000,1.922521
5618.959000,1.921668
5621.958000,1.922681
5624.958000,1.924996
5627.958000,1.923959
5630.959000,1.925645
5633.957000,1.922208
5636.957000,1.917776
5639.957000,1.919186
5642.957000,1.916854
5645.957000,1.911174
5648.955000,1.901992
5651.956000,1.907084
5654.956000,1.903743
5657.956000,1.895275
5660.956000,1.912017
5663.956000,1.891029
5666.954000,1.893255
5669.955000,1.876938
5672.955000,1.887048
5675.955000,1.887816
5678.955000,1.882064
5681.953000,1.881480
5684.953000,1.885749
5687.954000,1.868130
5690.953000,1.864591
5693.953000,1.871672
5696.953000,1.867783
5699.953000,1.869238
5702.953000,1.864768
5705.951000,1.864387
5708.952000,1.860036
5711.952000,1.858768
5714.952000,1.853179
5717.952000,1.869564
5720.950000,1.850133
5723.950000,1.861280
5726.950000,1.843932
5729.951000,1.847706
5732.951000,1.843222
5735.951000,1.840887
5738.949000,1.840859
5741.949000,1.838956
5744.949000,1.839935
5747.950000,1.835325
5750.950000,1.841648
5753.948000,1.829607
5756.948000,1.827228
5759.948000,1.828883
5762.948000,1.823767
5765.947000,1.818154
5768.948000,1.808503
5771.948000,1.822404
5774.948000,1.816077
5777.946000,1.818668
5780.946000,1.818120
5783.946000,1.817369
5786.947000,1.818440
5789.947000,1.816339
5792.945000,1.817910
5795.945000,1.818763
5798.945000,1.811281
5801.945000,1.819055
5804.945000,1.813106
5807.946000,1.813460
5810.944000,1.813497
5813.944000,1.818759
5816.944000,1.819096
5819.944000,1.811417
5822.944000,1.815850
5825.943000,1.813375
5828.943000,1.815720
5831.943000,1.820208
5834.943000,1.808072
5837.943000,1.818946
5840.941000,1.815404
5843.941000,1.813055
5846.942000,1.813280
5849.941000,1.815829
5852.941000,1.818256
5855.941000,1.817797
5858.941000,1.817950
5861.941000,1.820918
5864.939000,1.814123
5867.941000,1.826187
5870.941000,1.824090
5873.939000,1.824763
5876.939000,1.822618
5879.939000,1.832687
5882.939000,1.832408
5885.940000,1.842433
5888.938000,1.834030
5891.939000,1.832211
5894.939000,1.832072
5897.937000,1.838558
5900.937000,1.838599
5903.937000,1.839187
5906.938000,1.849399
5909.938000,1.843820
5912.937000,1.859244
5915.937000,1.851874
5918.937000,1.849650
5921.935000,1.861593
5924.937000,1.859148
5927.937000,1.862871
5930.935000,1.876737
5933.935000,1.865312
5936.935000,1.865043
5939.935000,1.866699
5942.935000,1.885535
5945.934000,1.877121
5948.934000,1.881412
5951.934000,1.886422
5954.934000,1.887211
5957.934000,1.900326
5960.932000,1.893225
5963.933000,1.900914
5966.933000,1.899636
5969.933000,1.915199
5972.933000,1.909579
5975.931000,1.914434
5978.931000,1.913914
5981.931000,1.932111
5984.932000,1.921753
5987.932000,1.933855
5990.932000,1.930357
5993.930000,1.939716
5996.930000,1.928134
5999.930000,1.940705
6002.931000,1.951661
6005.931000,1.955771
6008.929000,1.947194
6011.930000,1.968309
6014.930000,1.958919
6017.928000,1.967034
6020.928000,1.963644
6023.929000,1.973194
6026.929000,1.967459
6029.929000,1.979738
6032.927000,1.979404
6035.928000,1.981271
6038.928000,1.993794
6041.927000,1.977100
6044.927000,1.983841
6047.928000,1.988556
6050.926000,1.983062
6053.926000,2.006705
6056.926000,1.993264
6059.926000,2.006440
6062.927000,2.002239
6065.925000,2.001671
6068.925000,2.007950
6071.925000,2.003989
6074.925000,2.002354
6077.925000,2.001011
6080.924000,2.014381
6083.924000,2.026031
6086.924000,2.013039
6089.924000,2.009724
6092.924000,2.013311
6095.922000,2.014820
6098.923000,2.017091
6101.924000,2.021602
6104.922000,2.026946
6107.922000,2.039976
6110.922000,2.018461
6113.922000,2.027014
6116.922000,2.028455
6119.921000,2.023414
6122.921000,2.027758
6125.921000,2.026351
6128.921000,2.016102
6131.921000,2.032728
6134.921000,2.038885
6137.919000,2.031018
6140.920000,2.010758
6143.920000,2.010703
6146.920000,2.014215
6149.920000,2.006345
6152.918000,2.013780
6155.918000,2.007073
6158.919000,2.009864
6161.919000,1.998856
6164.919000,2.007426
6167.919000,1.999427
6170.917000,1.997921
6173.917000,1.991857
6176.917000,2.009656
6179.918000,1.991051
6182.918000,2.000899
6185.916000,1.991731
6188.916000,1.976698
6191.916000,1.988430
6194.916000,1.982416
6197.917000,1.978694
6200.915000,1.969342
6203.915000,1.972803
6206.915000,1.970464
6209.915000,1.966758
6212.915000,1.964861
6215.913000,1.958267
6218.914000,1.950070
6221.914000,1.955941
6224.914000,1.954796
6227.914000,1.944696
6230.914000,1.940821
6233.912000,1.933539
6236.913000,1.929293
6239.913000,1.921515
6242.913000,1.928304
6245.913000,1.910130
6248.911000,1.921750
6251.911000,1.918411
6254.911000,1.917412
6257.912000,1.895978
6260.912000,1.903732
6263.911000,1.898871
6266.911000,1.891787
6269.911000,1.891277
6272.909000,1.882795
6275.910000,1.889305
6278.910000,1.889441
6281.910000,1.881595
6284.910000,1.871815
6287.910000,1.860260
6290.908000,1.870237
6293.908000,1.853750
6296.909000,1.862072
6299.909000,1.865958
6302.909000,1.870037
6305.907000,1.853747
6308.907000,1.856436
6311.907000,1.852071
6314.908000,1.844483
6317.908000,1.841927
6320.906000,1.836868
6323.906000,1.840771
6326.906000,1.836154
6329.906000,1.830042
6332.906000,1.832537
6335.905000,1.827027
6338.905000,1.828621
6341.905000,1.820548
6344.905000,1.821421
6347.905000,1.817838
6350.905000,1.815588
6353.904000,1.816298
6356.904000,1.813891
6359.904000,1.812389
6362.904000,1.821459
6365.904000,1.802462
6368.902000,1.808265
6371.902000,1.807208
6374.903000,1.810771
6377.903000,1.804723
6380.903000,1.801891
6383.902000,1.817896
6386.902000,1.807521
6389.902000,1.801385
6392.901000,1.792825
6395.901000,1.797499
6398.901000,1.802051
6401.901000,1.797380
6404.901000,1.796078
6407.899000,1.791605
6410.899000,1.807096
6413.900000,1.789589
6416.900000,1.810244
6419.900000,1.803676
6422.900000,1.800494
6425.898000,1.806066
6428.898000,1.790496
6431.899000,1.806372
6434.899000,1.816852
6437.899000,1.811393
6440.897000,1.809129
6443.897000,1.807466
6446.897000,1.807443
6449.897000,1.825807
6452.898000,1.811818
6455.896000,1.815074
6458.896000,1.819453
6461.896000,1.814493
6464.895000,1.822546
6467.895000,1.822305
6470.896000,1.819796
6473.896000,1.832551
6476.896000,1.834353
6479.894000,1.832728
6482.894000,1.842590
6485.894000,1.845115
6488.894000,1.850986
6491.895000,1.846829
6494.895000,1.859288
6497.893000,1.857282
6500.893000,1.858941
6503.893000,1.872974
6506.893000,1.863398
6509.893000,1.870394
6512.893000,1.870350
6515.893000,1.868980
6518.893000,1.883859
6521.891000,1.883944
6524.891000,1.897967
6527.891000,1.891488
6530.892000,1.900377
6533.892000,1.893316
6536.890000,1.909219
6539.890000,1.901920
6542.890000,1.904174
6545.890000,1.912996
6548.890000,1.920750
6551.890000,1.921474
6554.890000,1.925815
6557.890000,1.932856
6560.888000,1.937839
6563.888000,1.919078
6566.888000,1.949054
6569.889000,1.943329
6572.889000,1.940317
6575.887000,1.948751
6578.887000,1.953823
6581.887000,1.945709
6584.887000,1.962971
6587.888000,1.961615
6590.887000,1.965640
6593.887000,1.973146
6596.887000,1.976097
6599.885000,1.970477
6602.886000,1.984551
6605.886000,1.980812
6608.885000,1.993798
6611.885000,1.980904
6614.885000,1.982851
6617.885000,1.993516
6620.885000,1.995161
6623.883000,1.991863
6626.884000,2.004044
6629.884000,1.997962
6632.884000,1.990782
6635.884000,2.007331
6638.882000,2.002929
6641.882000,2.005794
6644.882000,1.999094
6647.883000,2.010577
6650.883000,2.011655
6653.883000,2.014568
6656.881000,2.013226
6659.881000,2.009473
6662.881000,2.006012
6665.882000,2.023944
6668.881000,2.021792
6671.881000,2.027245
6674.881000,2.014449
6677.881000,2.004571
6680.879000,2.019991
6683.879000,2.009031
6686.880000,2.024498
6689.880000,2.009330
6692.880000,2.011077
6695.878000,2.017638
6698.878000,2.026803
6701.878000,2.012930
6704.879000,2.013059
6707.879000,2.028846
6710.879000,2.019756
6713.877000,2.003510
6716.877000,2.009133
6719.877000,2.009996
6722.877000,1.994739
6725.878000,2.008698
6728.877000,2.004979
6731.877000,2.005900
6734.877000,2.006199
6737.875000,2.003347
6740.875000,1.999587
6743.876000,1.991897
6746.876000,1.994702
6749.876000,1.983739
6752.874000,1.997408
6755.874000,1.990728
6758.874000,1.986652
6761.874000,1.990990
6764.875000,1.971684
6767.873000,1.973720
6770.873000,1.988665
6773.873000,1.972062
6776.873000,1.970134
6779.873000,1.976800
6782.872000,1.971365
6785.873000,1.988634
6788.873000,1.967486
6791.871000,1.974349
6794.871000,1.969162
6797.871000,1.967720
6800.871000,1.957447
6803.872000,1.960456
6806.872000,1.956332
6809.870000,1.957304
6812.870000,1.958980
6815.870000,1.945835
6818.870000,1.942612
6821.871000,1.950846
6824.869000,1.942581
6827.869000,1.958644
6830.869000,1.938924
6833.869000,1.933729
6836.869000,1.945872
6839.867000,1.942772
6842.868000,1.942595
6845.868000,1.943832
6848.868000,1.937336
6851.868000,1.933032
6854.868000,1.919220
6857.866000,1.925353
6860.868000,1.919870
6863.866000,1.934793
6866.866000,1.928545
6869.866000,1.929527
6872.866000,1.917422
6875.866000,1.925118
6878.864000,1.922086
6881.865000,1.925370
6884.865000,1.927042
6887.865000,1.915634
6890.865000,1.918948
6893.865000,1.916596
6896.863000,1.920454
6899.864000,1.913244
6902.864000,1.917306
6905.864000,1.915678
6908.864000,1.906292
6911.862000,1.918262
6914.862000,1.899864
6917.862000,1.909168
6920.863000,1.909838
6923.863000,1.902230
6926.863000,1.906863
6929.861000,1.904137
6932.861000,1.913778
6935.860000,1.903991
6938.861000,1.900438
6941.861000,1.907492
6944.861000,1.892137
6947.861000,1.901669
6950.861000,1.906258
6953.859000,1.900697
6956.859000,1.902906
6959.860000,1.902679
6962.860000,1.890260
6965.860000,1.900795
6968.858000,1.906520
6971.858000,1.887235
6974.858000,1.898796
6977.859000,1.894544
6980.859000,1.907336
6983.857000,1.890080
6986.857000,1.889635
6989.857000,1.880239
6992.857000,1.894193
6995.857000,1.887656
6998.856000,1.894244
7001.856000,1.887279
7004.856000,1.885433
7007.856000,1.889903
7010.856000,1.899415
7013.855000,1.890974
7016.856000,1.885542
7019.856000,1.884376
7022.856000,1.883019
7025.855000,1.891573
7028.855000,1.875367
7031.853000,1.888149
7034.853000,1.867232
7037.855000,1.866175
7040.853000,1.874245
7043.853000,1.876951
7046.853000,1.872933
7049.853000,1.873810
7052.852000,1.880541
7055.853000,1.869343
7058.853000,1.866332
7061.853000,1.873219
7064.851000,1.869102
7067.851000,1.865495
7070.852000,1.867249
7073.850000,1.864907
7076.851000,1.866355
7079.851000,1.863279
7082.850000,1.864479
7085.850000,1.868116
7088.850000,1.866709
7091.850000,1.860892
7094.851000,1.862793
7097.849000,1.863867
7100.849000,1.863537
7103.849000,1.864142
7106.849000,1.870119
7109.849000,1.867423
7112.847000,1.864006
7115.848000,1.867606
7118.848000,1.864520
7121.848000,1.869891
7124.848000,1.871036
7127.846000,1.871342
7130.846000,1.870819
7133.846000,1.882064
7136.847000,1.882455
7139.846000,1.879831
7142.846000,1.869078
7145.846000,1.882282
7148.846000,1.878260
7151.844000,1.880395
7154.846000,1.883880
7157.846000,1.889948
7160.844000,1.889278
7163.845000,1.890247
7166.845000,1.894163
7169.843000,1.895638
7172.843000,1.891341
7175.844000,1.895611
7178.844000,1.892891
7181.844000,1.901557
7184.843000,1.885304
7187.843000,1.905490
7190.841000,1.911306
7193.842000,1.900873
7196.842000,1.902162
7199.842000,1.900493
7202.842000,1.912258
7205.842000,1.910643
