Time(s),Position(V)
0.355000,1.893956
3.372000,1.843905
6.370000,1.885576
9.371000,1.915110
12.371000,1.923126
15.371000,1.932968
18.371000,1.929521
21.371000,1.932788
24.369000,1.943642
27.369000,1.917215
30.370000,1.909155
33.370000,1.896645
36.370000,1.883492
39.368000,1.874783
42.368000,1.860175
45.368000,1.846914
48.369000,1.834564
51.369000,1.841713
54.367000,1.819467
57.367000,1.792546
60.367000,1.800321
63.367000,1.770643
66.367000,1.753405
69.368000,1.741694
72.366000,1.721127
75.366000,1.715603
78.366000,1.690522
81.366000,1.667021
84.366000,1.648052
87.365000,1.634240
90.365000,1.606327
93.365000,1.580036
96.365000,1.560033
99.365000,1.534218
102.364000,1.508436
105.364000,1.485432
108.365000,1.468785
111.363000,1.429378
114.363000,1.399140
117.363000,1.369103
120.363000,1.343195
123.363000,1.304618
126.362000,1.271722
129.362000,1.241004
132.362000,1.209467
135.362000,1.172865
138.362000,1.137297
141.360000,1.103724
144.360000,1.068641
147.361000,1.029891
150.361000,1.004371
153.361000,0.953651
156.361000,0.911042
159.359000,0.877897
162.359000,0.833507
165.360000,0.786472
168.360000,0.742806
171.360000,0.699371
174.358000,0.655035
177.358000,0.610343
180.358000,0.562387
183.358000,0.513543
186.359000,0.469367
189.357000,0.423301
192.357000,0.373261
195.357000,0.322453
198.357000,0.274160
201.357000,0.225803
204.358000,0.175671
207.356000,0.125583
210.356000,0.073785
213.356000,0.026516
216.356000,-0.026152
219.356000,-0.080805
222.354000,-0.130325
225.355000,-0.178121
228.355000,-0.228617
231.355000,-0.270495
234.355000,-0.332562
237.353000,-0.385754
240.353000,-0.437249
243.355000,-0.490059
246.353000,-0.538974
249.353000,-0.593396
252.353000,-0.647264
255.353000,-0.699976
258.353000,-0.750703
261.351000,-0.805492
264.352000,-0.857762
267.352000,-0.914975
270.352000,-0.967908
273.352000,-1.021059
276.352000,-1.075090
279.350000,-1.124559
282.351000,-1.173032
285.351000,-1.218802
288.351000,-1.267027
291.351000,-1.311138
294.349000,-1.353961
297.350000,-1.400398
300.350000,-1.443438
303.349000,-1.487791
306.349000,-1.535564
309.349000,-1.582085
312.349000,-1.634162
315.349000,-1.681924
318.347000,-1.727864
321.348000,-1.775736
324.349000,-1.820646
327.348000,-1.862031
330.348000,-1.899218
333.348000,-1.934426
336.346000,-1.969165
339.346000,-1.999648
342.347000,-2.028907
345.347000,-2.058778
348.347000,-2.089003
351.345000,-2.119931
354.345000,-2.148687
357.345000,-2.181074
360.346000,-2.214892
363.346000,-2.248070
366.344000,-2.279403
369.344000,-2.311328
372.344000,-2.341736
375.344000,-2.365056
378.344000,-2.391881
381.343000,-2.415847
384.343000,-2.432025
387.343000,-2.448421
390.343000,-2.464378
393.343000,-2.480413
396.343000,-2.486920
399.342000,-2.499763
402.342000,-2.511029
405.342000,-2.516091
408.342000,-2.515023
411.342000,-2.524151
414.340000,-2.534247
417.340000,-2.527798
420.341000,-2.548049
423.341000,-2.529583
426.341000,-2.547753
429.339000,-2.535063
432.339000,-2.541209
435.339000,-2.525269
438.340000,-2.528852
441.340000,-2.529923
444.340000,-2.526092
447.338000,-2.521921
450.338000,-2.501303
453.338000,-2.502687
456.338000,-2.490438
459.339000,-2.471714
462.337000,-2.461839
465.337000,-2.450787
468.337000,-2.434313
471.337000,-2.421307
474.337000,-2.409565
477.336000,-2.392191
480.336000,-2.363639
483.337000,-2.343041
486.335000,-2.314560
489.335000,-2.287834
492.335000,-2.260468
495.335000,-2.231821
498.336000,-2.199472
501.334000,-2.169675
504.334000,-2.138876
507.334000,-2.109539
510.334000,-2.083479
513.334000,-2.056660
516.335000,-2.028384
519.333000,-2.001168
522.333000,-1.975532
525.333000,-1.946273
528.333000,-1.918017
531.333000,-1.891358
534.331000,-1.856045
537.332000,-1.821778
540.332000,-1.784282
543.332000,-1.747908
546.332000,-1.707131
549.330000,-1.666429
552.330000,-1.624313
555.330000,-1.580834
558.331000,-1.541285
561.331000,-1.501841
564.331000,-1.462295
567.329000,-1.426342
570.330000,-1.390529
573.328000,-1.356755
576.329000,-1.316598
579.329000,-1.283538
582.329000,-1.247643
585.329000,-1.212530
588.329000,-1.174595
591.327000,-1.136300
594.327000,-1.099059
597.328000,-1.060180
600.328000,-1.018784
603.328000,-0.976522
606.326000,-0.938003
609.326000,-0.895571
612.326000,-0.872999
615.327000,-0.826382
618.327000,-0.779207
621.325000,-0.741820
624.325000,-0.704916
627.325000,-0.666012
630.325000,-0.630134
633.325000,-0.596000
636.326000,-0.578772
639.324000,-0.540956
642.324000,-0.508604
645.324000,-0.488669
648.324000,-0.451428
651.324000,-0.399882
654.323000,-0.368923
657.323000,-0.334293
660.323000,-0.306427
663.323000,-0.278803
666.323000,-0.251767
669.321000,-0.260324
672.321000,-0.204311
675.322000,-0.176129
678.322000,-0.150834
681.322000,-0.127697
684.322000,-0.101579
687.320000,-0.083001
690.321000,-0.055918
693.320000,-0.044778
696.320000,-0.021141
699.320000,0.003835
702.320000,0.021726
705.320000,0.034311
708.319000,0.032727
711.319000,0.071205
714.320000,0.091765
717.318000,0.106543
720.318000,0.105587
723.318000,0.108470
726.318000,0.116625
729.318000,0.135377
732.319000,0.157620
735.317000,0.170272
738.317000,0.173981
741.317000,0.175324
744.316000,0.176425
747.316000,0.189768
750.316000,0.189884
753.317000,0.193613
756.316000,0.186580
759.316000,0.187627
762.316000,0.191951
765.314000,0.178914
768.314000,0.191424
771.315000,0.167590
774.315000,0.159880
777.315000,0.147934
780.315000,0.145732
783.313000,0.137926
786.313000,0.131546
789.313000,0.117832
792.314000,0.111438
795.314000,0.099625
798.312000,0.089049
801.312000,0.075784
804.312000,0.061360
807.312000,0.046831
810.313000,0.032380
813.311000,0.016739
816.311000,0.001237
819.311000,-0.016181
822.311000,-0.031010
825.311000,-0.052287
828.309000,-0.067935
831.310000,-0.091388
834.310000,-0.110659
837.310000,-0.133453
840.310000,-0.151786
843.310000,-0.173349
846.308000,-0.198406
849.309000,-0.221468
852.309000,-0.251281
855.309000,-0.261527
858.309000,-0.290079
861.307000,-0.320267
864.307000,-0.343590
867.307000,-0.370174
870.308000,-0.397009
873.308000,-0.425320
876.308000,-0.451486
879.306000,-0.477141
882.306000,-0.494078
885.306000,-0.531166
888.307000,-0.558491
891.307000,-0.589762
894.305000,-0.620330
897.305000,-0.646863
900.305000,-0.675952
903.305000,-0.705976
906.305000,-0.733804
909.304000,-0.764437
912.304000,-0.793910
915.304000,-0.826810
918.304000,-0.854380
921.304000,-0.884778
924.302000,-0.916348
927.303000,-0.949017
930.303000,-0.978708
933.303000,-1.010242
936.303000,-1.040310
939.303000,-1.070987
942.301000,-1.099199
945.301000,-1.127248
948.302000,-1.155018
951.302000,-1.181044
954.302000,-1.206241
957.300000,-1.233698
960.300000,-1.258535
963.300000,-1.282049
966.301000,-1.304948
969.301000,-1.329118
972.301000,-1.349579
975.299000,-1.374504
978.299000,-1.396866
981.299000,-1.419506
984.299000,-1.442850
987.300000,-1.459229
990.298000,-1.483175
993.298000,-1.503153
996.298000,-1.520416
999.298000,-1.547826
1002.298000,-1.569331
1005.297000,-1.586396
1008.297000,-1.606528
1011.297000,-1.628386
1014.297000,-1.644680
1017.297000,-1.663740
1020.295000,-1.682866
1023.296000,-1.697004
1026.297000,-1.713281
1029.295000,-1.729442
1032.296000,-1.743267
1035.296000,-1.759847
1038.294000,-1.766533
1041.294000,-1.780362
1044.294000,-1.791978
1047.294000,-1.799287
1050.294000,-1.806834
1053.293000,-1.820904
1056.293000,-1.821679
1059.293000,-1.830562
1062.293000,-1.838418
1065.294000,-1.843232
1068.294000,-1.849820
1071.292000,-1.845180
1074.292000,-1.841597
1077.292000,-1.852659
1080.292000,-1.832694
1083.293000,-1.852835
1086.291000,-1.833822
1089.291000,-1.845115
1092.291000,-1.847430
1095.291000,-1.826527
1098.291000,-1.821040
1101.289000,-1.826860
1104.290000,-1.835134
1107.290000,-1.806970
1110.290000,-1.823219
1113.290000,-1.796999
1116.290000,-1.786777
1119.288000,-1.777381
1122.289000,-1.770045
1125.289000,-1.764385
1128.289000,-1.750620
1131.289000,-1.738678
1134.287000,-1.726311
1137.287000,-1.709198
1140.287000,-1.698748
1143.288000,-1.680252
1146.288000,-1.663720
1149.286000,-1.647148
1152.286000,-1.632431
1155.286000,-1.616716
1158.286000,-1.601687
1161.287000,-1.579798
1164.285000,-1.561600
1167.285000,-1.543461
1170.285000,-1.522421
1173.285000,-1.505710
1176.285000,-1.488240
1179.285000,-1.467646
1182.284000,-1.450346
1185.284000,-1.432897
1188.284000,-1.413802
1191.284000,-1.392790
1194.284000,-1.370421
1197.282000,-1.353087
1200.283000,-1.329026
1203.283000,-1.308820
1206.283000,-1.289664
1209.283000,-1.271711
1212.283000,-1.249846
1215.281000,-1.232090
1218.281000,-1.206479
1221.282000,-1.185521
1224.282000,-1.161705
1227.282000,-1.141519
1230.281000,-1.120214
1233.281000,-1.095439
1236.280000,-1.073859
1239.281000,-1.049437
1242.281000,-1.026437
1245.279000,-1.001376
1248.279000,-0.975139
1251.279000,-0.954371
1254.279000,-0.928668
1257.279000,-0.901534
1260.278000,-0.877989
1263.278000,-0.871697
1266.278000,-0.834194
1269.278000,-0.807059
1272.278000,-0.788937
1275.278000,-0.765072
1278.277000,-0.740158
1281.277000,-0.718782
1284.277000,-0.697957
1287.277000,-0.676170
1290.277000,-0.668871
1293.275000,-0.635237
1296.275000,-0.613467
1299.276000,-0.594899
1302.276000,-0.580383
1305.276000,-0.568441
1308.275000,-0.548891
1311.275000,-0.523265
1314.275000,-0.522042
1317.274000,-0.492075
1320.274000,-0.499269
1323.274000,-0.471832
1326.274000,-0.446438
1329.274000,-0.431045
1332.274000,-0.404730
1335.272000,-0.394001
1338.273000,-0.378605
1341.273000,-0.369436
1344.273000,-0.353799
1347.273000,-0.342492
1350.271000,-0.323295
1353.271000,-0.312631
1356.272000,-0.303392
1359.272000,-0.297551
1362.272000,-0.281033
1365.270000,-0.272983
1368.270000,-0.282886
1371.270000,-0.259379
1374.270000,-0.260507
1377.271000,-0.260953
1380.269000,-0.251604
1383.269000,-0.248711
1386.269000,-0.239635
1389.269000,-0.217372
1392.269000,-0.210304
1395.270000,-0.229297
1398.268000,-0.204161
1401.268000,-0.207812
1404.268000,-0.198739
1407.268000,-0.186756
1410.268000,-0.192290
1413.266000,-0.188034
1416.267000,-0.208016
1419.267000,-0.187660
1422.266000,-0.211351
1425.266000,-0.210773
1428.267000,-0.214384
1431.265000,-0.200262
1434.266000,-0.200055
1437.266000,-0.220992
1440.266000,-0.222338
1443.266000,-0.229419
1446.264000,-0.232292
1449.265000,-0.238102
1452.265000,-0.235593
1455.264000,-0.250544
1458.264000,-0.252621
1461.264000,-0.264179
1464.264000,-0.271892
1467.264000,-0.274870
1470.262000,-0.286758
1473.264000,-0.292286
1476.262000,-0.303086
1479.262000,-0.306523
1482.262000,-0.317843
1485.261000,-0.328456
1488.261000,-0.331787
1491.261000,-0.326726
1494.262000,-0.359282
1497.262000,-0.373835
1500.260000,-0.382409
1503.260000,-0.394358
1506.260000,-0.405202
1509.259000,-0.418603
1512.261000,-0.433271
1515.261000,-0.442661
1518.259000,-0.458648
1521.259000,-0.469404
1524.259000,-0.482839
1527.259000,-0.496580
1530.259000,-0.503484
1533.258000,-0.526294
1536.258000,-0.542214
1539.258000,-0.554041
1542.258000,-0.568805
1545.258000,-0.587247
1548.256000,-0.601599
1551.257000,-0.619627
1554.257000,-0.635057
1557.257000,-0.648066
1560.257000,-0.666067
1563.257000,-0.680892
1566.255000,-0.694204
1569.255000,-0.715804
1572.256000,-0.729412
1575.256000,-0.747667
1578.256000,-0.763845
1581.254000,-0.781142
1584.254000,-0.796137
1587.254000,-0.811587
1590.255000,-0.829496
1593.255000,-0.844256
1596.253000,-0.865717
1599.253000,-0.881235
1602.253000,-0.891560
1605.253000,-0.916739
1608.253000,-0.931622
1611.254000,-0.948341
1614.252000,-0.962795
1617.252000,-0.980068
1620.252000,-0.992707
1623.252000,-1.011102
1626.251000,-1.027042
1629.252000,-1.043940
1632.252000,-1.054635
1635.252000,-1.072900
1638.250000,-1.086097
1641.250000,-1.100236
1644.250000,-1.108840
1647.250000,-1.126197
1650.251000,-1.133268
1653.249000,-1.152067
1656.249000,-1.161708
1659.249000,-1.171169
1662.249000,-1.183998
1665.249000,-1.195522
1668.248000,-1.206112
1671.248000,-1.216514
1674.248000,-1.225444
1677.248000,-1.235215
1680.248000,-1.245529
1683.248000,-1.252120
1686.246000,-1.257998
1689.247000,-1.268149
1692.247000,-1.271599
1695.247000,-1.283276
1698.247000,-1.286458
1701.245000,-1.293593
1704.245000,-1.300528
1707.246000,-1.306270
1710.246000,-1.312967
1713.246000,-1.309955
1716.244000,-1.294831
1719.244000,-1.319980
1722.244000,-1.327211
1725.244000,-1.332545
1728.245000,-1.329461
1731.245000,-1.322176
1734.243000,-1.326884
1737.243000,-1.341580
1740.243000,-1.340727
1743.243000,-1.342600
1746.244000,-1.334741
1749.242000,-1.332327
1752.242000,-1.332935
1755.242000,-1.332126
1758.242000,-1.332415
1761.242000,-1.318335
1764.240000,-1.323233
1767.241000,-1.322761
1770.241000,-1.314109
1773.241000,-1.331113
1776.241000,-1.306855
1779.241000,-1.298169
1782.239000,-1.292485
1785.240000,-1.307232
1788.240000,-1.301456
1791.240000,-1.286478
1794.240000,-1.280186
1797.238000,-1.279506
1800.238000,-1.282882
1803.237000,-1.267027
1806.238000,-1.258501
1809.238000,-1.246742
1812.238000,-1.241925
1815.238000,-1.241211
1818.238000,-1.223915
1821.236000,-1.215280
1824.237000,-1.212992
1827.237000,-1.198375
1830.237000,-1.192534
1833.237000,-1.183859
1836.235000,-1.170394
1839.235000,-1.161599
1842.235000,-1.149188
1845.236000,-1.138911
1848.236000,-1.126673
1851.236000,-1.112239
1854.234000,-1.106021
1857.234000,-1.090513
1860.234000,-1.079424
1863.234000,-1.066649
1866.235000,-1.051671
1869.233000,-1.044372
1872.233000,-1.025594
1875.233000,-1.007777
1878.232000,-0.998405
1881.232000,-0.981839
1884.233000,-0.968636
1887.233000,-0.953222
1890.233000,-0.939594
1893.231000,-0.924375
1896.231000,-0.913507
1899.231000,-0.898134
1902.230000,-0.878625
1905.231000,-0.874719
1908.231000,-0.874902
1911.231000,-0.847550
1914.231000,-0.829434
1917.229000,-0.807946
1920.229000,-0.799223
1923.230000,-0.777487
1926.230000,-0.765446
1929.230000,-0.754908
1932.228000,-0.736323
1935.228000,-0.726006
1938.228000,-0.716440
1941.228000,-0.699762
1944.229000,-0.681408
1947.229000,-0.674405
1950.227000,-0.666393
1953.227000,-0.657700
1956.227000,-0.637484
1959.227000,-0.621418
1962.228000,-0.614293
1965.226000,-0.597717
1968.226000,-0.591306
1971.226000,-0.578160
1974.226000,-0.584293
1977.226000,-0.571191
1980.224000,-0.552348
1983.225000,-0.537431
1986.225000,-0.519767
1989.225000,-0.515426
1992.225000,-0.516647
1995.225000,-0.498990
1998.223000,-0.503253
2001.224000,-0.476581
2004.224000,-0.487224
2007.224000,-0.475931
2010.224000,-0.471781
2013.222000,-0.461082
2016.222000,-0.461184
2019.222000,-0.433237
2022.223000,-0.435699
2025.223000,-0.430256
2028.221000,-0.410828
2031.221000,-0.427122
2034.221000,-0.402697
2037.221000,-0.394691
2040.222000,-0.411447
2043.220000,-0.403547
2046.220000,-0.381906
2049.220000,-0.380274
2052.220000,-0.379013
2055.220000,-0.400341
2058.220000,-0.377024
2061.219000,-0.391975
2064.219000,-0.370721
2067.218000,-0.388844
2070.218000,-0.364341
2073.218000,-0.357936
2076.218000,-0.355403
2079.219000,-0.375382
2082.219000,-0.377163
2085.218000,-0.353133
2088.218000,-0.353371
2091.218000,-0.382031
2094.216000,-0.376749
2097.216000,-0.380984
2100.217000,-0.394293
2103.217000,-0.394354
2106.217000,-0.394582
2109.215000,-0.395340
2112.215000,-0.397380
2115.215000,-0.404791
2118.216000,-0.395119
2121.216000,-0.405868
2124.214000,-0.407864
2127.214000,-0.420564
2130.214000,-0.425123
2133.214000,-0.427805
2136.214000,-0.429845
2139.215000,-0.435491
2142.213000,-0.435525
2145.213000,-0.447828
2148.213000,-0.447808
2151.213000,-0.455025
2154.213000,-0.441566
2157.212000,-0.452291
2160.212000,-0.476264
2163.212000,-0.479531
2166.212000,-0.485389
2169.212000,-0.491909
2172.210000,-0.502705
2175.210000,-0.503253
2178.211000,-0.494700
2181.211000,-0.520335
2184.211000,-0.531390
2187.211000,-0.540297
2190.209000,-0.547538
2193.209000,-0.556706
2196.210000,-0.565347
2199.210000,-0.573407
2202.210000,-0.580149
2205.208000,-0.591561
2208.208000,-0.598410
2211.208000,-0.607762
2214.208000,-0.615187
2217.209000,-0.623617
2220.207000,-0.636226
2223.207000,-0.640118
2226.207000,-0.647247
2229.207000,-0.661250
2232.207000,-0.667100
2235.208000,-0.676462
2238.206000,-0.681259
2241.206000,-0.696550
2244.206000,-0.705106
2247.206000,-0.713234
2250.206000,-0.722494
2253.204000,-0.732472
2256.205000,-0.731588
2259.204000,-0.751182
2262.204000,-0.761248
2265.204000,-0.769750
2268.204000,-0.779680
2271.204000,-0.789100
2274.205000,-0.792561
2277.203000,-0.802082
2280.203000,-0.812077
2283.203000,-0.822496
2286.203000,-0.832504
2289.203000,-0.839602
2292.201000,-0.843739
2295.202000,-0.854166
2298.202000,-0.858432
2301.202000,-0.871663
2304.202000,-0.878679
2307.202000,-0.885668
2310.200000,-0.891512
2313.201000,-0.904151
2316.201000,-0.912276
2319.201000,-0.921268
2322.201000,-0.924745
2325.199000,-0.931898
2328.199000,-0.930772
2331.199000,-0.946230
2334.200000,-0.950459
2337.200000,-0.955079
2340.198000,-0.962336
2343.198000,-0.963060
2346.198000,-0.974401
2349.198000,-0.977624
2352.199000,-0.976703
2355.199000,-0.981003
2358.197000,-0.990362
2361.197000,-0.995648
2364.197000,-0.997589
2367.196000,-0.987023
2370.196000,-0.998918
2373.197000,-0.999068
2376.197000,-1.009528
2379.195000,-1.016252
2382.195000,-1.014790
2385.195000,-0.993843
2388.195000,-0.995655
2391.195000,-1.002780
2394.195000,-1.018723
2397.195000,-0.998864
2400.195000,-1.016456
2403.193000,-1.018665
2406.193000,-0.996239
2409.193000,-1.017809
2412.194000,-0.999802
2415.194000,-1.020433
2418.194000,-1.021803
2421.193000,-1.000798
2424.193000,-1.010891
2427.192000,-1.003752
2430.193000,-1.010915
2433.193000,-1.011333
2436.193000,-0.993540
2439.191000,-0.984137
2442.191000,-0.996807
2445.191000,-1.009664
2448.191000,-0.978667
2451.192000,-0.972637
2454.190000,-0.993085
2457.190000,-0.969118
2460.190000,-0.968561
2463.190000,-0.974799
2466.190000,-0.966745
2469.189000,-0.971532
2472.189000,-0.953093
2475.189000,-0.965182
2478.189000,-0.946029
2481.189000,-0.927828
2484.187000,-0.946505
2487.188000,-0.921784
2490.189000,-0.918480
2493.187000,-0.910216
2496.187000,-0.923457
2499.187000,-0.896849
2502.187000,-0.895500
2505.187000,-0.881065
2508.188000,-0.894983
2511.186000,-0.874488
2514.186000,-0.880029
2517.186000,-0.854505
2520.186000,-0.848903
2523.184000,-0.844776
2526.184000,-0.837818
2529.185000,-0.845443
2532.185000,-0.813239
2535.185000,-0.820147
2538.185000,-0.803809
2541.184000,-0.796990
2544.184000,-0.791194
2547.185000,-0.783474
2550.183000,-0.776134
2553.183000,-0.763804
2556.183000,-0.758831
2559.183000,-0.751158
2562.183000,-0.740627
2565.181000,-0.741820
2568.182000,-0.724221
2571.182000,-0.719102
2574.182000,-0.717755
2577.182000,-0.708832
2580.180000,-0.698198
2583.180000,-0.691773
2586.181000,-0.680117
2589.181000,-0.680548
2592.181000,-0.690145
2595.179000,-0.666090
2598.179000,-0.657248
2601.179000,-0.656375
2604.179000,-0.637780
2607.179000,-0.651952
2610.179000,-0.629414
2613.179000,-0.629968
2616.179000,-0.615819
2619.177000,-0.608728
2622.177000,-0.616043
2625.178000,-0.600970
2628.178000,-0.597255
2631.177000,-0.594443
2634.177000,-0.591727
2637.177000,-0.589004
2640.177000,-0.563216
2643.175000,-0.569073
2646.176000,-0.565439
2649.176000,-0.557284
2652.176000,-0.567428
2655.176000,-0.545522
2658.176000,-0.536068
2661.174000,-0.536948
2664.175000,-0.546256
2667.175000,-0.519291
2670.175000,-0.523449
2673.175000,-0.520760
2676.173000,-0.529486
2679.173000,-0.524564
2682.173000,-0.519145
2685.174000,-0.520865
2688.174000,-0.515688
2691.174000,-0.509596
2694.173000,-0.507179
2697.173000,-0.501108
2700.171000,-0.499578
2703.172000,-0.495910
2706.173000,-0.501053
2709.171000,-0.499442
2712.171000,-0.490682
2715.171000,-0.498205
2718.171000,-0.497579
2721.171000,-0.493608
2724.170000,-0.496787
2727.170000,-0.494972
2730.170000,-0.494186
2733.170000,-0.495733
2736.170000,-0.496250
2739.168000,-0.484688
2742.169000,-0.469228
2745.169000,-0.479827
2748.169000,-0.485555
2751.169000,-0.476050
2754.169000,-0.467201
2757.167000,-0.492201
2760.167000,-0.494931
2763.168000,-0.501067
2766.168000,-0.475217
2769.167000,-0.481513
2772.167000,-0.495822
2775.167000,-0.492697
2778.167000,-0.501033
2781.166000,-0.498232
2784.166000,-0.504483
2787.166000,-0.497674
2790.166000,-0.495648
2793.166000,-0.513002
2796.165000,-0.518537
2799.165000,-0.515110
2802.166000,-0.519934
2805.164000,-0.532073
2808.164000,-0.534599
2811.164000,-0.540538
2814.164000,-0.544148
2817.164000,-0.547004
2820.163000,-0.541847
2823.164000,-0.544369
2826.164000,-0.556553
2829.162000,-0.552538
2832.163000,-0.565833
2835.161000,-0.570599
2838.161000,-0.579244
2841.162000,-0.576164
2844.162000,-0.588858
2847.162000,-0.577504
2850.162000,-0.593219
2853.160000,-0.599369
2856.160000,-0.606131
2859.161000,-0.615884
2862.161000,-0.602242
2865.161000,-0.622649
2868.159000,-0.627809
2871.159000,-0.633517
2874.159000,-0.640203
2877.159000,-0.646350
2880.160000,-0.651697
2883.158000,-0.654338
2886.158000,-0.658122
2889.158000,-0.669146
2892.158000,-0.671193
2895.158000,-0.678009
2898.159000,-0.677383
2901.157000,-0.676914
2904.157000,-0.693755
2907.157000,-0.700109
2910.157000,-0.703131
2913.157000,-0.703206
2916.155000,-0.715519
2919.156000,-0.719690
2922.156000,-0.724823
2925.156000,-0.715141
2928.156000,-0.714026
2931.154000,-0.732383
2934.154000,-0.738502
2937.155000,-0.736986
2940.155000,-0.751692
2943.155000,-0.759266
2946.155000,-0.761479
2949.153000,-0.762424
2952.153000,-0.764987
2955.153000,-0.761139
2958.154000,-0.771684
2961.154000,-0.775424
2964.152000,-0.777480
2967.152000,-0.789110
2970.152000,-0.768737
2973.152000,-0.792295
2976.153000,-0.796908
2979.151000,-0.798700
2982.151000,-0.793380
2985.151000,-0.801049
2988.151000,-0.802280
2991.150000,-0.810996
2994.150000,-0.813083
2997.151000,-0.813386
3000.151000,-0.812862
3003.149000,-0.824067
3006.149000,-0.832106
3009.149000,-0.832929
3012.148000,-0.818148
3015.149000,-0.825481
3018.149000,-0.832113
3021.148000,-0.811135
3024.148000,-0.810306
3027.148000,-0.822469
3030.148000,-0.841778
3033.148000,-0.842777
3036.147000,-0.843335
3039.147000,-0.842981
3042.147000,-0.822727
3045.147000,-0.837297
3048.147000,-0.842978
3051.145000,-0.825923
3054.146000,-0.843780
3057.146000,-0.843529
3060.146000,-0.828619
3063.146000,-0.842679
3066.146000,-0.833830
3069.144000,-0.824332
3072.144000,-0.831491
3075.145000,-0.843172
3078.145000,-0.828775
3081.145000,-0.819977
3084.143000,-0.823689
3087.143000,-0.830825
3090.143000,-0.830961
3093.143000,-0.825889
3096.144000,-0.821833
3099.142000,-0.836346
3102.142000,-0.808579
3105.142000,-0.828122
3108.142000,-0.814538
3111.142000,-0.831936
3114.143000,-0.808055
3117.141000,-0.817040
3120.141000,-0.804149
3123.141000,-0.812709
3126.141000,-0.795409
3129.141000,-0.788848
3132.139000,-0.806022
3135.140000,-0.802861
3138.140000,-0.779728
3141.140000,-0.785486
3144.140000,-0.775420
3147.138000,-0.787607
3150.138000,-0.777521
3153.140000,-0.759712
3156.138000,-0.768615
3159.138000,-0.766408
3162.138000,-0.751645
3165.138000,-0.757447
3168.138000,-0.741589
3171.136000,-0.739733
3174.138000,-0.751196
3177.138000,-0.721121
3180.136000,-0.726319
3183.136000,-0.721784
3186.136000,-0.730959
3189.136000,-0.717378
3192.137000,-0.702954
3195.135000,-0.701951
3198.135000,-0.715417
3201.135000,-0.697913
3204.135000,-0.689383
3207.135000,-0.705439
3210.135000,-0.675986
3213.134000,-0.686195
3216.135000,-0.689652
3219.133000,-0.660930
3222.133000,-0.657537
3225.133000,-0.656150
3228.133000,-0.675724
3231.134000,-0.653716
3234.134000,-0.655406
3237.132000,-0.639092
3240.132000,-0.635716
3243.132000,-0.647125
3246.132000,-0.627914
3249.132000,-0.640132
3252.131000,-0.615483
3255.131000,-0.616683
3258.131000,-0.612137
3261.131000,-0.624257
3264.131000,-0.597057
3267.129000,-0.608956
3270.130000,-0.597102
3273.130000,-0.610217
3276.130000,-0.584364
3279.130000,-0.597421
3282.130000,-0.596939
3285.129000,-0.571361
3288.129000,-0.576654
3291.128000,-0.565633
3294.128000,-0.584479
3297.128000,-0.563654
3300.128000,-0.571827
3303.128000,-0.549839
3306.128000,-0.572782
3309.127000,-0.566218
3312.127000,-0.564263
3315.127000,-0.543808
3318.127000,-0.558623
3321.127000,-0.537999
3324.125000,-0.550267
3327.125000,-0.542992
3330.126000,-0.541748
3333.126000,-0.530724
3336.126000,-0.556383
3339.124000,-0.535514
3342.124000,-0.522171
3345.124000,-0.547191
3348.125000,-0.536578
3351.125000,-0.532954
3354.125000,-0.529704
3357.123000,-0.515593
3360.123000,-0.544152
3363.122000,-0.527471
3366.122000,-0.541425
3369.123000,-0.524503
3372.123000,-0.533878
3375.122000,-0.544624
3378.122000,-0.530132
3381.122000,-0.537737
3384.122000,-0.542126
3387.121000,-0.525325
3390.121000,-0.535344
3393.121000,-0.522280
3396.121000,-0.537720
3399.121000,-0.536952
3402.121000,-0.542177
3405.119000,-0.530044
3408.120000,-0.535990
3411.120000,-0.536969
3414.120000,-0.526060
3417.120000,-0.545498
3420.118000,-0.547031
3423.118000,-0.521158
3426.119000,-0.546290
3429.119000,-0.548649
3432.119000,-0.543825
3435.117000,-0.525325
3438.117000,-0.549751
3441.117000,-0.550271
3444.117000,-0.552276
3447.118000,-0.549887
3450.118000,-0.559711
3453.116000,-0.549676
3456.116000,-0.553646
3459.116000,-0.558681
3462.116000,-0.548370
3465.117000,-0.573101
3468.115000,-0.577052
3471.115000,-0.571524
3474.115000,-0.581621
3477.115000,-0.581909
3480.115000,-0.570929
3483.113000,-0.589619
3486.114000,-0.590558
3489.114000,-0.582341
3492.114000,-0.593808
3495.114000,-0.581270
3498.112000,-0.598795
3501.112000,-0.604329
3504.113000,-0.612658
3507.113000,-0.615187
3510.113000,-0.614211
3513.113000,-0.612872
3516.111000,-0.622822
3519.111000,-0.629590
3522.111000,-0.632303
3525.112000,-0.635621
3528.112000,-0.635985
3531.110000,-0.640258
3534.110000,-0.646625
3537.110000,-0.644419
3540.110000,-0.649895
3543.111000,-0.643848
3546.111000,-0.656443
3549.109000,-0.642726
3552.109000,-0.669354
3555.109000,-0.671302
3558.109000,-0.670051
3561.109000,-0.675650
3564.108000,-0.657962
3567.108000,-0.684328
3570.108000,-0.682948
3573.108000,-0.688272
3576.108000,-0.694187
3579.108000,-0.692565
3582.107000,-0.693823
3585.107000,-0.710712
3588.107000,-0.710467
3591.107000,-0.713754
3594.105000,-0.712592
3597.105000,-0.721400
3600.105000,-0.723650
3603.106000,-0.727192
3606.106000,-0.724785
3609.106000,-0.733491
3612.104000,-0.720499
3615.104000,-0.742269
3618.104000,-0.722419
3621.105000,-0.727502
3624.104000,-0.750822
3627.104000,-0.753742
3630.104000,-0.733974
3633.104000,-0.751247
3636.102000,-0.755316
3639.102000,-0.762686
3642.103000,-0.745532
3645.103000,-0.764987
3648.103000,-0.770399
3651.101000,-0.772697
3654.101000,-0.773904
3657.101000,-0.769590
3660.102000,-0.756339
3663.102000,-0.760245
3666.102000,-0.779670
3669.100000,-0.782423
3672.100000,-0.772324
3675.100000,-0.761666
3678.100000,-0.785051
3681.101000,-0.780343
3684.099000,-0.780462
3687.099000,-0.787730
3690.099000,-0.767286
3693.099000,-0.764658
3696.099000,-0.780860
3699.098000,-0.781179
3702.098000,-0.762604
3705.098000,-0.786023
3708.098000,-0.781023
3711.098000,-0.766031
3714.096000,-0.789579
3717.096000,-0.777409
3720.097000,-0.769791
3723.097000,-0.762513
3726.097000,-0.784983
3729.097000,-0.759344
3732.095000,-0.767119
3735.095000,-0.770002
3738.096000,-0.761931
3741.096000,-0.755163
3744.096000,-0.771725
3747.094000,-0.756074
3750.094000,-0.764481
3753.094000,-0.773068
3756.094000,-0.766735
3759.095000,-0.743095
3762.095000,-0.760096
3765.093000,-0.740970
3768.093000,-0.761479
3771.093000,-0.744411
3774.093000,-0.749962
3777.094000,-0.741120
3780.092000,-0.742038
3783.092000,-0.745872
3786.092000,-0.721325
3789.092000,-0.736092
3792.092000,-0.720706
3795.090000,-0.722039
3798.091000,-0.728008
3801.091000,-0.707843
3804.091000,-0.708618
3807.091000,-0.717647
3810.091000,-0.701350
3813.089000,-0.696301
3816.090000,-0.715920
3819.090000,-0.687748
3822.090000,-0.707288
3825.090000,-0.686997
3828.088000,-0.702886
3831.088000,-0.681786
3834.088000,-0.689802
3837.089000,-0.674820
3840.089000,-0.687045
3843.087000,-0.662120
3846.087000,-0.656025
3849.087000,-0.678345
3852.087000,-0.656497
3855.088000,-0.670941
3858.086000,-0.642284
3861.086000,-0.639330
3864.086000,-0.657269
3867.086000,-0.640326
3870.086000,-0.629648
3873.086000,-0.643759
3876.086000,-0.629155
3879.086000,-0.629220
3882.086000,-0.619399
3885.084000,-0.633996
3888.084000,-0.618651
3891.084000,-0.610176
3894.085000,-0.608745
3897.085000,-0.616475
3900.083000,-0.607538
3903.083000,-0.608979
3906.083000,-0.602850
3909.083000,-0.589541
3912.083000,-0.595755
3915.082000,-0.603194
3918.082000,-0.576664
3921.082000,-0.591023
3924.082000,-0.574743
3927.082000,-0.590728
3930.080000,-0.572911
3933.081000,-0.576246
3936.081000,-0.564440
3939.081000,-0.554683
3942.081000,-0.549485
3945.081000,-0.547412
3948.079000,-0.546868
3951.079000,-0.546106
3954.080000,-0.555938
3957.080000,-0.545620
3960.080000,-0.541633
3963.078000,-0.537054
3966.078000,-0.531516
3969.078000,-0.530635
3972.079000,-0.546616
3975.079000,-0.531026
3978.077000,-0.532950
3981.077000,-0.532709
3984.077000,-0.541582
3987.077000,-0.529847
3990.077000,-0.536785
3993.078000,-0.535925
3996.076000,-0.517813
3999.076000,-0.527678
4002.076000,-0.520179
4005.076000,-0.530044
4008.076000,-0.523918
4011.075000,-0.518506
4014.075000,-0.528215
4017.075000,-0.511078
4020.075000,-0.494972
4023.075000,-0.500268
4026.075000,-0.503623
4029.073000,-0.505153
4032.074000,-0.519043
4035.074000,-0.521290
4038.074000,-0.520005
4041.074000,-0.524397
4044.072000,-0.529755
4047.072000,-0.520308
4050.073000,-0.529718
4053.073000,-0.531628
4056.073000,-0.510905
4059.071000,-0.515630
4062.071000,-0.524125
4065.071000,-0.529976
4068.071000,-0.535959
4071.072000,-0.535803
4074.070000,-0.537706
4077.070000,-0.531829
4080.070000,-0.537880
4083.070000,-0.529554
4086.070000,-0.543900
4089.071000,-0.522844
4092.069000,-0.545651
4095.069000,-0.536418
4098.069000,-0.540681
4101.069000,-0.553728
4104.069000,-0.552800
4107.067000,-0.546599
4110.068000,-0.546990
4113.068000,-0.560632
4116.068000,-0.564725
4119.068000,-0.570627
4122.066000,-0.582066
4125.066000,-0.563603
4128.067000,-0.568893
4131.067000,-0.593002
4134.067000,-0.577218
4137.067000,-0.572031
4140.065000,-0.599624
4143.065000,-0.588732
4146.065000,-0.579064
4149.066000,-0.613616
4152.066000,-0.616179
4155.064000,-0.612396
4158.064000,-0.620340
4161.064000,-0.621245
4164.064000,-0.598543
4167.065000,-0.619168
4170.063000,-0.639099
4173.063000,-0.635254
4176.063000,-0.633823
4179.063000,-0.640339
4182.063000,-0.644504
4185.063000,-0.652703
4188.062000,-0.657490
4191.062000,-0.659478
4194.062000,-0.663296
4197.062000,-0.643396
4200.062000,-0.662888
4203.060000,-0.669881
4206.061000,-0.664635
4209.061000,-0.676785
4212.061000,-0.672624
4215.061000,-0.669129
4218.059000,-0.683173
4221.059000,-0.682051
4224.059000,-0.687425
4227.060000,-0.679855
4230.060000,-0.694755
4233.060000,-0.698814
4236.058000,-0.702818
4239.058000,-0.709359
4242.059000,-0.688942
4245.058000,-0.690346
4248.058000,-0.706707
4251.058000,-0.680123
4254.058000,-0.692484
4257.058000,-0.719472
4260.056000,-0.720308
4263.056000,-0.711640
4266.057000,-0.716144
4269.056000,-0.720998
4272.056000,-0.719754
4275.056000,-0.703437
4278.056000,-0.723453
4281.056000,-0.725136
4284.055000,-0.705181
4287.055000,-0.722838
4290.055000,-0.708448
4293.055000,-0.724133
4296.055000,-0.708808
4299.053000,-0.714774
4302.053000,-0.727961
4305.054000,-0.731180
4308.054000,-0.728195
4311.054000,-0.713805
4314.052000,-0.704491
4317.052000,-0.728338
4320.052000,-0.708342
4323.052000,-0.726438
4326.053000,-0.720176
4329.053000,-0.706782
4332.051000,-0.718109
4335.051000,-0.729613
4338.051000,-0.713826
4341.051000,-0.707996
4344.052000,-0.723494
4347.050000,-0.712347
4350.050000,-0.723317
4353.050000,-0.704865
4356.050000,-0.721583
4359.050000,-0.702087
4362.048000,-0.713231
4365.049000,-0.719309
4368.049000,-0.698229
4371.049000,-0.715090
4374.049000,-0.693912
4377.049000,-0.711361
4380.047000,-0.691301
4383.048000,-0.707509
4386.048000,-0.700367
4389.048000,-0.681643
4392.048000,-0.683108
4395.046000,-0.690760
4398.046000,-0.687813
4401.046000,-0.686643
4404.047000,-0.683581
4407.047000,-0.682143
4410.045000,-0.673066
4413.045000,-0.677621
4416.045000,-0.663344
4419.045000,-0.677516
4422.046000,-0.655572
4425.046000,-0.656789
4428.044000,-0.662079
4431.044000,-0.652703
4434.044000,-0.653244
4437.044000,-0.647862
4440.044000,-0.662422
4443.043000,-0.651714
4446.044000,-0.639677
4449.044000,-0.649576
4452.042000,-0.626640
4455.042000,-0.628669
4458.042000,-0.621911
4461.043000,-0.638449
4464.043000,-0.632470
4467.041000,-0.623352
4470.041000,-0.623781
4473.041000,-0.602211
4476.041000,-0.604798
4479.041000,-0.599627
4482.040000,-0.618161
4485.040000,-0.595052
4488.040000,-0.613093
4491.040000,-0.584860
4494.040000,-0.605271
4497.038000,-0.591238
4500.039000,-0.572857
4503.039000,-0.585282
4506.039000,-0.586842
4509.039000,-0.569937
4512.039000,-0.589470
4515.037000,-0.558545
4518.037000,-0.555016
4521.038000,-0.580713
4524.038000,-0.557763
4527.038000,-0.549054
4530.036000,-0.562213
4533.036000,-0.544947
4536.036000,-0.560150
4539.037000,-0.538536
4542.037000,-0.558579
4545.037000,-0.536442
4548.035000,-0.543254
4551.035000,-0.536092
4554.035000,-0.523908
4557.035000,-0.519485
4560.036000,-0.540351
4563.034000,-0.507777
4566.034000,-0.509695
4569.034000,-0.533440
4572.034000,-0.519060
4575.034000,-0.536146
4578.033000,-0.521168
4581.033000,-0.525155
4584.033000,-0.521919
4587.033000,-0.510494
4590.033000,-0.495760
4593.033000,-0.519047
4596.031000,-0.518741
4599.032000,-0.508773
4602.032000,-0.511670
4605.032000,-0.509256
4608.032000,-0.516439
4611.030000,-0.512255
4614.030000,-0.503266
4617.031000,-0.501298
4620.031000,-0.503209
4623.031000,-0.508039
4626.029000,-0.488040
4629.029000,-0.472787
4632.029000,-0.499843
4635.029000,-0.481663
4638.030000,-0.494526
4641.030000,-0.489961
4644.029000,-0.491402
4647.029000,-0.481476
4650.027000,-0.487387
4653.027000,-0.476927
4656.028000,-0.490702
4659.028000,-0.488356
4662.028000,-0.494445
4665.028000,-0.479164
4668.026000,-0.496369
4671.026000,-0.469401
4674.026000,-0.475738
4677.027000,-0.486198
4680.027000,-0.492663
4683.025000,-0.496695
4686.025000,-0.483006
4689.025000,-0.486082
4692.025000,-0.502671
4695.026000,-0.494373
4698.024000,-0.507213
4701.024000,-0.507614
4704.024000,-0.501675
4707.024000,-0.490678
4710.024000,-0.505401
4713.024000,-0.489233
4716.023000,-0.499085
4719.023000,-0.508015
4722.023000,-0.514427
4725.023000,-0.500397
4728.023000,-0.515304
4731.021000,-0.513594
4734.022000,-0.518180
4737.022000,-0.519353
4740.022000,-0.521770
4743.022000,-0.513047
4746.020000,-0.509749
4749.020000,-0.522511
4752.020000,-0.522677
4755.021000,-0.508556
4758.020000,-0.533885
4761.020000,-0.521882
4764.020000,-0.537098
4767.020000,-0.534507
4770.018000,-0.539396
4773.019000,-0.517765
4776.019000,-0.540327
4779.019000,-0.537791
4782.019000,-0.545277
4785.019000,-0.537485
4788.017000,-0.538566
4791.017000,-0.545902
4794.018000,-0.522657
4797.018000,-0.543003
4800.018000,-0.547572
4803.016000,-0.551195
4806.016000,-0.558895
4809.016000,-0.540134
4812.017000,-0.560704
4815.017000,-0.557549
4818.015000,-0.561530
4821.015000,-0.558331
4824.015000,-0.568516
4827.015000,-0.550825
4830.015000,-0.556957
4833.014000,-0.574553
4836.014000,-0.559980
4839.014000,-0.564474
4842.013000,-0.569583
4845.013000,-0.556917
4848.013000,-0.574570
4851.014000,-0.577483
4854.014000,-0.587389
4857.014000,-0.584823
4860.013000,-0.576719
4863.013000,-0.581668
4866.011000,-0.574284
4869.011000,-0.597969
4872.012000,-0.598540
4875.012000,-0.598536
4878.011000,-0.579377
4881.011000,-0.599784
4884.011000,-0.599464
4887.011000,-0.606029
4890.010000,-0.600776
4893.010000,-0.609534
4896.010000,-0.612358
4899.010000,-0.598332
4902.010000,-0.602813
4905.010000,-0.613864
4908.008000,-0.597285
4911.009000,-0.619130
4914.009000,-0.599556
4917.009000,-0.610227
4920.009000,-0.619531
4923.007000,-0.622482
4926.007000,-0.618678
4929.008000,-0.619331
4932.008000,-0.627466
4935.008000,-0.609265
4938.006000,-0.619684
4941.006000,-0.607011
4944.006000,-0.599648
4947.006000,-0.622737
4950.007000,-0.634744
4953.005000,-0.631147
4956.005000,-0.632232
4959.005000,-0.633697
4962.005000,-0.627296
4965.005000,-0.622078
4968.006000,-0.629050
4971.004000,-0.638211
4974.004000,-0.628543
4977.004000,-0.628581
4980.004000,-0.630277
4983.004000,-0.634061
4986.002000,-0.636263
4989.003000,-0.617362
4992.003000,-0.633170
4995.003000,-0.622091
4998.003000,-0.639156
5001.003000,-0.639068
5004.001000,-0.639092
5007.002000,-0.636362
5010.002000,-0.609975
5013.002000,-0.636287
5016.002000,-0.639207
5019.000000,-0.640911
5022.000000,-0.637270
5025.000000,-0.626092
5028.001000,-0.625120
5031.001000,-0.636172
5033.999000,-0.614449
5036.999000,-0.642053
5039.999000,-0.614340
5042.999000,-0.619076
5046.000000,-0.634336
5049.000000,-0.640989
5051.998000,-0.643956
5054.998000,-0.624053
5057.998000,-0.618783
5060.998000,-0.618947
5063.998000,-0.625256
5066.997000,-0.633904
5069.997000,-0.639945
5072.997000,-0.622995
5075.997000,-0.642852
5078.997000,-0.635240
5081.995000,-0.623594
5084.996000,-0.640931
5087.996000,-0.630015
5090.996000,-0.640934
5093.996000,-0.639054
5096.994000,-0.636009
5099.994000,-0.636522
5102.994000,-0.635369
5105.995000,-0.638606
5108.995000,-0.644718
5111.995000,-0.648920
5114.993000,-0.640013
5117.993000,-0.621982
5120.993000,-0.618705
5123.994000,-0.620164
5126.994000,-0.623835
5129.992000,-0.628655
5132.992000,-0.628210
5135.992000,-0.630464
5138.992000,-0.635682
5141.992000,-0.642376
5144.993000,-0.628934
5147.991000,-0.645966
5150.991000,-0.638072
5153.991000,-0.622577
5156.991000,-0.645564
5159.991000,-0.644630
5162.990000,-0.632354
5165.990000,-0.648015
5168.990000,-0.641638
5171.990000,-0.625304
5174.990000,-0.619412
5177.988000,-0.645411
5180.988000,-0.638976
5183.989000,-0.626697
5186.989000,-0.642236
5189.989000,-0.630495
5192.987000,-0.633153
5195.987000,-0.645085
5198.987000,-0.639126
5201.988000,-0.628163
5204.988000,-0.617577
5207.988000,-0.636879
5210.986000,-0.623580
5213.986000,-0.637141
5216.986000,-0.633524
5219.986000,-0.622615
5222.987000,-0.635196
5225.985000,-0.622689
5228.985000,-0.641995
5231.985000,-0.633252
5234.984000,-0.610377
5237.984000,-0.634115
5240.985000,-0.623199
5243.985000,-0.611158
5246.985000,-0.634220
5249.983000,-0.620544
5252.983000,-0.637144
5255.983000,-0.617900
5258.983000,-0.629142
5261.983000,-0.622285
5264.983000,-0.615333
5267.983000,-0.627071
5270.983000,-0.605325
5273.981000,-0.632684
5276.981000,-0.622078
5279.982000,-0.608235
5282.982000,-0.626211
5285.982000,-0.630865
5288.980000,-0.621432
5291.980000,-0.603098
5294.980000,-0.620674
5297.980000,-0.606974
5300.981000,-0.597486
5303.981000,-0.610652
5306.980000,-0.593842
5309.980000,-0.615615
5312.978000,-0.620361
5315.978000,-0.609574
5318.980000,-0.596813
5321.978000,-0.597601
5324.978000,-0.594987
5327.978000,-0.619694
5330.978000,-0.610642
5333.978000,-0.600389
5336.978000,-0.612008
5339.977000,-0.595460
5342.977000,-0.608745
5345.977000,-0.598139
5348.977000,-0.601715
5351.977000,-0.589446
5354.975000,-0.602463
5357.976000,-0.605757
5360.976000,-0.589133
5363.976000,-0.599736
5366.976000,-0.613273
5369.974000,-0.592927
5372.974000,-0.589422
5375.974000,-0.595419
5378.975000,-0.598156
5381.975000,-0.609476
5384.973000,-0.611373
5387.973000,-0.595300
5390.973000,-0.598618
5393.973000,-0.601317
5396.974000,-0.587162
5399.974000,-0.590694
5402.972000,-0.597132
5405.972000,-0.615316
5408.972000,-0.597136
5411.972000,-0.603894
5414.972000,-0.598169
5417.971000,-0.591833
5420.972000,-0.607286
5423.972000,-0.616468
5426.970000,-0.615969
5429.970000,-0.600005
5432.970000,-0.601154
5435.971000,-0.615857
5438.971000,-0.600753
5441.969000,-0.605441
5444.969000,-0.613681
5447.969000,-0.607524
5450.969000,-0.615068
5453.969000,-0.622118
5456.970000,-0.622360
5459.968000,-0.604863
5462.968000,-0.609289
5465.968000,-0.624029
5468.968000,-0.604750
5471.968000,-0.629250
5474.967000,-0.629104
5477.967000,-0.630801
5480.968000,-0.616261
5483.966000,-0.603173
5486.966000,-0.629278
5489.966000,-0.626517
5492.966000,-0.613331
5495.967000,-0.637606
5498.965000,-0.637783
5501.965000,-0.639075
5504.965000,-0.630161
5507.965000,-0.617121
5510.964000,-0.641308
5513.965000,-0.637820
5516.964000,-0.617366
5519.964000,-0.636257
5522.964000,-0.617743
5525.964000,-0.640945
5528.962000,-0.625055
5531.962000,-0.639982
5534.963000,-0.619980
5537.963000,-0.634142
5540.963000,-0.642158
5543.963000,-0.639105
5546.961000,-0.647053
5549.961000,-0.632351
5552.962000,-0.629057
5555.962000,-0.641635
5558.962000,-0.650422
5561.960000,-0.652676
5564.961000,-0.652499
5567.961000,-0.655436
5570.959000,-0.644986
5573.960000,-0.634605
5576.960000,-0.657320
5579.960000,-0.656606
5582.960000,-0.649215
5585.958000,-0.649858
5588.958000,-0.661046
5591.959000,-0.644885
5594.959000,-0.652611
5597.959000,-0.655783
5600.959000,-0.636943
5603.957000,-0.647074
5606.957000,-0.663344
5609.957000,-0.642029
5612.958000,-0.664581
5615.958000,-0.643647
5618.956000,-0.663534
5621.956000,-0.639384
5624.956000,-0.661797
5627.956000,-0.669650
5630.957000,-0.660311
5633.955000,-0.650980
5636.956000,-0.661029
5639.955000,-0.642162
5642.955000,-0.661620
5645.955000,-0.644191
5648.953000,-0.666247
5651.954000,-0.669741
5654.954000,-0.664482
5657.954000,-0.646285
5660.954000,-0.668263
5663.954000,-0.668395
5666.952000,-0.669357
5669.952000,-0.647111
5672.953000,-0.662008
5675.953000,-0.669398
5678.953000,-0.669690
5681.951000,-0.671190
5684.951000,-0.646360
5687.951000,-0.641352
5690.952000,-0.668368
5693.952000,-0.669867
5696.950000,-0.668263
5699.950000,-0.668942
5702.950000,-0.669735
5705.950000,-0.677526
5708.950000,-0.660872
5711.951000,-0.675096
5714.949000,-0.660291
5717.949000,-0.673688
5720.949000,-0.666039
5723.949000,-0.668127
5726.948000,-0.675170
5729.949000,-0.658877
5732.949000,-0.668337
5735.949000,-0.676622
5738.947000,-0.660168
5741.947000,-0.683679
5744.946000,-0.682870
5747.946000,-0.683876
5750.947000,-0.664244
5753.947000,-0.679029
5756.947000,-0.664829
5759.947000,-0.670438
5762.945000,-0.660529
5765.945000,-0.670833
5768.946000,-0.684655
5771.946000,-0.662613
5774.946000,-0.680766
5777.944000,-0.663214
5780.944000,-0.688493
5783.944000,-0.679770
5786.944000,-0.662881
5789.945000,-0.681306
5792.943000,-0.664513
5795.943000,-0.683506
5798.943000,-0.667178
5801.943000,-0.691012
5804.943000,-0.669238
5807.944000,-0.673086
5810.942000,-0.687269
5813.942000,-0.679437
5816.942000,-0.670244
5819.942000,-0.669272
5822.942000,-0.671159
5825.940000,-0.675541
5828.941000,-0.667651
5831.941000,-0.664129
5834.941000,-0.679773
5837.941000,-0.677258
5840.939000,-0.665472
5843.939000,-0.683982
5846.940000,-0.666345
5849.940000,-0.674742
5852.940000,-0.667953
5855.940000,-0.678335
5858.938000,-0.676690
5861.938000,-0.658384
5864.938000,-0.668028
5867.939000,-0.682432
5870.939000,-0.662745
5873.937000,-0.680552
5876.937000,-0.666356
5879.937000,-0.662065
5882.937000,-0.674201
5885.938000,-0.682122
5888.936000,-0.677336
5891.936000,-0.660372
5894.936000,-0.669520
5897.936000,-0.666389
5900.936000,-0.661158
5903.936000,-0.668167
5906.935000,-0.679651
5909.935000,-0.678862
5912.935000,-0.657408
5915.935000,-0.675701
5918.935000,-0.668565
5921.933000,-0.652890
5924.934000,-0.661324
5927.934000,-0.672502
5930.934000,-0.648457
5933.934000,-0.672417
5936.932000,-0.660576
5939.932000,-0.656575
5942.932000,-0.670326
5945.933000,-0.669677
5948.933000,-0.663378
5951.931000,-0.648080
5954.931000,-0.669160
5957.931000,-0.669653
5960.931000,-0.660383
5963.932000,-0.647726
5966.932000,-0.639636
5969.930000,-0.665431
5972.930000,-0.650276
5975.930000,-0.652605
5978.930000,-0.645762
5981.930000,-0.659393
5984.929000,-0.644687
5987.929000,-0.655195
5990.929000,-0.665968
5993.929000,-0.648070
5996.929000,-0.635641
5999.929000,-0.659975
6002.928000,-0.641601
6005.928000,-0.644167
6008.928000,-0.665030
6011.928000,-0.654876
6014.928000,-0.638160
6017.926000,-0.658312
6020.926000,-0.665315
6023.927000,-0.638769
6026.927000,-0.662154
6029.927000,-0.648053
6032.925000,-0.650330
6035.925000,-0.652244
6038.925000,-0.653512
6041.926000,-0.653930
6044.926000,-0.642372
6047.926000,-0.654202
6050.924000,-0.654957
6053.924000,-0.638460
6056.924000,-0.660189
6059.924000,-0.656942
6062.925000,-0.658183
6065.923000,-0.652734
6068.923000,-0.657626
6071.923000,-0.658370
6074.923000,-0.664581
6077.923000,-0.651595
6080.922000,-0.644524
6083.922000,-0.663745
6086.922000,-0.659383
6089.922000,-0.660876
6092.922000,-0.658017
6095.922000,-0.649362
6098.920000,-0.641587
6101.921000,-0.661515
6104.921000,-0.641522
6107.921000,-0.663361
6110.921000,-0.648369
6113.919000,-0.654604
6116.919000,-0.660825
6119.920000,-0.655164
6122.920000,-0.643066
6125.920000,-0.661824
6128.918000,-0.655307
6131.918000,-0.647087
6134.918000,-0.655923
6137.918000,-0.653519
6140.919000,-0.663820
6143.919000,-0.645014
6146.917000,-0.668259
6149.917000,-0.669694
6152.917000,-0.669905
6155.917000,-0.670187
6158.918000,-0.670105
6161.916000,-0.670894
6164.917000,-0.669629
6167.916000,-0.669803
6170.916000,-0.667134
6173.916000,-0.653009
6176.914000,-0.663058
6179.915000,-0.657017
6182.915000,-0.670231
6185.915000,-0.669707
6188.915000,-0.670493
6191.915000,-0.672662
6194.913000,-0.652866
6197.914000,-0.659995
6200.914000,-0.669089
6203.914000,-0.653723
6206.914000,-0.667525
6209.912000,-0.679848
6212.912000,-0.678587
6215.912000,-0.669490
6218.913000,-0.666158
6221.913000,-0.673416
6224.911000,-0.679205
6227.911000,-0.675221
6230.911000,-0.658499
6233.911000,-0.679705
6236.912000,-0.655419
6239.912000,-0.676999
6242.910000,-0.659152
6245.910000,-0.677356
6248.910000,-0.653896
6251.910000,-0.675871
6254.910000,-0.678577
6257.909000,-0.670013
6260.909000,-0.672672
6263.909000,-0.673141
6266.909000,-0.669605
6269.909000,-0.663337
6272.907000,-0.649484
6275.908000,-0.672566
6278.908000,-0.663524
6281.908000,-0.650538
6284.908000,-0.673379
6287.906000,-0.672298
6290.906000,-0.659846
6293.906000,-0.646846
6296.907000,-0.652972
6299.907000,-0.672763
6302.907000,-0.667137
6305.905000,-0.646282
6308.905000,-0.667688
6311.905000,-0.667770
6314.906000,-0.646197
6317.906000,-0.656483
6320.904000,-0.659835
6323.904000,-0.647312
6326.904000,-0.666576
6329.904000,-0.642981
6332.904000,-0.639105
6335.905000,-0.639007
6338.903000,-0.637375
6341.903000,-0.666818
6344.903000,-0.648627
6347.903000,-0.641590
6350.903000,-0.663160
6353.902000,-0.640571
6356.902000,-0.658292
6359.902000,-0.655715
6362.902000,-0.638490
6365.902000,-0.654083
6368.900000,-0.636889
6371.900000,-0.652758
6374.901000,-0.632993
6377.901000,-0.649045
6380.901000,-0.643351
6383.901000,-0.627653
6386.899000,-0.646234
6389.899000,-0.648362
6392.900000,-0.633945
6395.900000,-0.634265
6398.900000,-0.638422
6401.898000,-0.632616
6404.898000,-0.645568
6407.898000,-0.628010
6410.898000,-0.643664
6413.899000,-0.637147
6416.897000,-0.620619
6419.897000,-0.619151
6422.897000,-0.627928
6425.897000,-0.638021
6428.897000,-0.639408
6431.896000,-0.623808
6434.896000,-0.642913
6437.896000,-0.617162
6440.896000,-0.618644
6443.896000,-0.619341
6446.895000,-0.612522
6449.895000,-0.637222
6452.896000,-0.630267
6455.896000,-0.627636
6458.894000,-0.639524
6461.894000,-0.633031
6464.894000,-0.620167
6467.894000,-0.639068
6470.895000,-0.638205
6473.893000,-0.618355
6476.893000,-0.634414
6479.893000,-0.618766
6482.893000,-0.632256
6485.893000,-0.633670
6488.891000,-0.616849
6491.892000,-0.631637
6494.892000,-0.606454
6497.892000,-0.614177
6500.892000,-0.619606
6503.890000,-0.635509
6506.890000,-0.624566
6509.891000,-0.605141
6512.891000,-0.600413
6515.891000,-0.626857
6518.891000,-0.621333
6521.889000,-0.608391
6524.889000,-0.629607
6527.889000,-0.606423
6530.890000,-0.632035
6533.890000,-0.630042
6536.888000,-0.628016
6539.888000,-0.622163
6542.888000,-0.608721
6545.888000,-0.600664
6548.889000,-0.602449
6551.887000,-0.626786
6554.887000,-0.638898
6557.887000,-0.630212
6560.887000,-0.614344
6563.887000,-0.632126
6566.887000,-0.626718
6569.886000,-0.622822
6572.886000,-0.633690
6575.886000,-0.628632
6578.886000,-0.616220
6581.885000,-0.636447
6584.885000,-0.640577
6587.886000,-0.634914
6590.886000,-0.644225
6593.885000,-0.621500
6596.885000,-0.618440
6599.885000,-0.619290
6602.883000,-0.635937
6605.883000,-0.641352
6608.884000,-0.638789
6611.884000,-0.639105
6614.884000,-0.646690
6617.882000,-0.651027
6620.882000,-0.652632
6623.882000,-0.649331
6626.883000,-0.644806
6629.883000,-0.648223
6632.881000,-0.659145
6635.881000,-0.636053
6638.881000,-0.649351
6641.881000,-0.646431
6644.881000,-0.642688
6647.882000,-0.653091
6650.880000,-0.633578
6653.880000,-0.654447
6656.880000,-0.639745
6659.880000,-0.656432
6662.880000,-0.657072
6665.879000,-0.659087
6668.879000,-0.656347
6671.879000,-0.642056
6674.879000,-0.664941
6677.879000,-0.650439
6680.877000,-0.648865
6683.877000,-0.667688
6686.878000,-0.646319
6689.878000,-0.657259
6692.878000,-0.662555
6695.878000,-0.649579
6698.876000,-0.649266
6701.876000,-0.663065
6704.877000,-0.642308
6707.877000,-0.646102
6710.877000,-0.667304
6713.876000,-0.670323
6716.876000,-0.650286
6719.874000,-0.646285
6722.874000,-0.651326
6725.875000,-0.667260
6728.875000,-0.648940
6731.875000,-0.660712
6734.875000,-0.667297
6737.873000,-0.647441
6740.873000,-0.665247
6743.874000,-0.643644
6746.874000,-0.660495
6749.874000,-0.670955
6752.872000,-0.664088
6755.872000,-0.646197
6758.872000,-0.653594
6761.872000,-0.670629
6764.873000,-0.646509
6767.871000,-0.667086
6770.871000,-0.669765
6773.871000,-0.660488
6776.871000,-0.657034
6779.871000,-0.643994
6782.872000,-0.659914
6785.870000,-0.667773
6788.870000,-0.667331
6791.870000,-0.665737
6794.870000,-0.659886
6797.870000,-0.656942
6800.868000,-0.639989
6803.869000,-0.640118
6806.869000,-0.649916
6809.868000,-0.665560
6812.868000,-0.644585
6815.868000,-0.654733
6818.868000,-0.667430
6821.869000,-0.648858
6824.867000,-0.662065
6827.867000,-0.642501
6830.867000,-0.658452
6833.867000,-0.656184
6836.867000,-0.652425
6839.865000,-0.647658
6842.866000,-0.639694
6845.866000,-0.666226
6848.866000,-0.658567
6851.866000,-0.646645
6854.865000,-0.654984
6857.865000,-0.658071
6860.865000,-0.639605
6863.865000,-0.639112
6866.865000,-0.641237
6869.865000,-0.643769
6872.863000,-0.638980
6875.863000,-0.655134
6878.863000,-0.641655
6881.864000,-0.665516
6884.864000,-0.669548
6887.862000,-0.667776
6890.862000,-0.650381
6893.862000,-0.650368
6896.862000,-0.656446
6899.862000,-0.637018
6902.863000,-0.636549
6905.861000,-0.658170
6908.861000,-0.663762
6911.861000,-0.645122
6914.861000,-0.643837
6917.861000,-0.665159
6920.860000,-0.651976
6923.860000,-0.633748
6926.860000,-0.636556
6929.860000,-0.639245
6932.860000,-0.640346
6935.858000,-0.640353
6938.858000,-0.643769
6941.859000,-0.649253
6944.859000,-0.653825
6947.859000,-0.666515
6950.859000,-0.655249
6953.857000,-0.659363
6956.857000,-0.664724
6959.858000,-0.658316
6962.858000,-0.652292
6965.858000,-0.655858
6968.858000,-0.638303
6971.856000,-0.658608
6974.856000,-0.653407
6977.856000,-0.646326
6980.857000,-0.666124
6983.855000,-0.640547
6986.856000,-0.662694
6989.856000,-0.642760
6992.854000,-0.656385
6995.854000,-0.645190
6998.855000,-0.658312
7001.855000,-0.650456
7004.855000,-0.648179
7007.853000,-0.659958
7010.853000,-0.638555
7013.853000,-0.658782
7016.853000,-0.653047
7019.854000,-0.641206
7022.854000,-0.663507
7025.852000,-0.665278
7028.852000,-0.652764
7031.852000,-0.646628
7034.852000,-0.668694
7037.853000,-0.650279
7040.851000,-0.641240
7043.851000,-0.667573
7046.851000,-0.670024
7049.851000,-0.673192
7052.851000,-0.664414
7055.849000,-0.646030
7058.850000,-0.669643
7061.850000,-0.648610
7064.850000,-0.671118
7067.850000,-0.669480
7070.850000,-0.662956
7073.848000,-0.655338
7076.849000,-0.646295
7079.849000,-0.677720
7082.849000,-0.677594
7085.849000,-0.673658
7088.848000,-0.670986
7091.848000,-0.673178
7094.848000,-0.678403
7097.847000,-0.679868
7100.847000,-0.675102
7103.847000,-0.659006
7106.847000,-0.666107
7109.847000,-0.679603
7112.845000,-0.679862
7115.846000,-0.659230
7118.846000,-0.660406
7121.846000,-0.680232
7124.846000,-0.672957
7127.844000,-0.665941
7130.844000,-0.671288
7133.844000,-0.675565
7136.845000,-0.659757
7139.845000,-0.680630
7142.845000,-0.658527
7145.843000,-0.677509
7148.843000,-0.660016
7151.843000,-0.677791
7154.844000,-0.655783
7157.844000,-0.678158
7160.842000,-0.677530
7163.842000,-0.665778
7166.842000,-0.665723
7169.842000,-0.679770
7172.842000,-0.663286
7175.841000,-0.678430
7178.841000,-0.676207
7181.841000,-0.669959
7184.841000,-0.670520
7187.841000,-0.679467
7190.839000,-0.684206
7193.840000,-0.687843
7196.840000,-0.662222
7199.840000,-0.684237
7202.839000,-0.664010
7205.839000,-0.681935
