Time(s),Position(V)
0.354000,2.749382
3.368000,2.754740
6.369000,2.764751
9.369000,2.750902
12.369000,2.746034
15.368000,2.728812
18.368000,2.719250
21.368000,2.706872
24.367000,2.689293
27.367000,2.671256
30.367000,2.651050
33.367000,2.626937
36.367000,2.602298
39.367000,2.573997
42.365000,2.542889
45.366000,2.509693
48.366000,2.473771
51.366000,2.435860
54.366000,2.396168
57.364000,2.352200
60.364000,2.304430
63.365000,2.255124
66.365000,2.203745
69.365000,2.153549
72.363000,2.095751
75.363000,2.040907
78.363000,1.981495
81.363000,1.920509
84.364000,1.858435
87.364000,1.793566
90.362000,1.732043
93.362000,1.676937
96.361000,1.601595
99.361000,1.530801
102.362000,1.463006
105.362000,1.391593
108.362000,1.322958
111.362000,1.255455
114.360000,1.175456
117.360000,1.103860
120.360000,1.030870
123.361000,0.953304
126.360000,0.877785
129.360000,0.799224
132.360000,0.720434
135.360000,0.650664
138.358000,0.560680
141.360000,0.481904
144.358000,0.399002
147.358000,0.316354
150.358000,0.233196
153.358000,0.149036
156.358000,0.065440
159.358000,-0.017932
162.357000,-0.107307
165.357000,-0.189435
168.357000,-0.273089
171.357000,-0.357416
174.357000,-0.439992
177.356000,-0.522511
180.356000,-0.607827
183.357000,-0.692450
186.355000,-0.773180
189.355000,-0.860601
192.354000,-0.948052
195.354000,-1.036727
198.354000,-1.121237
201.355000,-1.200673
204.354000,-1.274662
207.354000,-1.348226
210.354000,-1.421889
213.354000,-1.498003
216.352000,-1.582680
219.352000,-1.667854
222.353000,-1.755573
225.353000,-1.836719
228.353000,-1.909035
231.353000,-1.974179
234.351000,-2.036423
237.351000,-2.099262
240.352000,-2.170597
243.351000,-2.251184
246.351000,-2.331619
249.351000,-2.404595
252.351000,-2.465544
255.351000,-2.519769
258.350000,-2.569027
261.351000,-2.621134
264.349000,-2.678626
267.349000,-2.740231
270.349000,-2.810182
273.349000,-2.876787
276.349000,-2.928728
279.350000,-2.973556
282.348000,-3.011630
285.348000,-3.048463
288.348000,-3.084566
291.348000,-3.124101
294.348000,-3.166921
297.346000,-3.218168
300.347000,-3.270088
303.347000,-3.316834
306.347000,-3.354452
309.347000,-3.382845
312.345000,-3.407919
315.345000,-3.427704
318.346000,-3.447173
321.346000,-3.458911
324.346000,-3.480215
327.345000,-3.492766
330.345000,-3.506167
333.345000,-3.519513
336.343000,-3.532635
339.344000,-3.536850
342.344000,-3.548099
345.344000,-3.552501
348.344000,-3.558872
351.344000,-3.562826
354.342000,-3.545811
357.343000,-3.537309
360.343000,-3.532224
363.343000,-3.532261
366.343000,-3.515077
369.341000,-3.511120
372.341000,-3.499844
375.341000,-3.491230
378.342000,-3.485104
381.342000,-3.456338
384.340000,-3.444133
387.340000,-3.425392
390.340000,-3.417400
393.340000,-3.400597
396.341000,-3.369947
399.341000,-3.339542
402.340000,-3.311317
405.340000,-3.273708
408.338000,-3.233935
411.338000,-3.181766
414.338000,-3.134803
417.339000,-3.092187
420.339000,-3.056099
423.339000,-3.022753
426.337000,-2.986042
429.337000,-2.951256
432.337000,-2.913005
435.338000,-2.867945
438.338000,-2.815950
441.336000,-2.752822
444.336000,-2.689752
447.336000,-2.630996
450.336000,-2.578879
453.336000,-2.533112
456.335000,-2.485740
459.335000,-2.437992
462.335000,-2.384583
465.335000,-2.325412
468.335000,-2.255451
471.333000,-2.182903
474.334000,-2.115281
477.334000,-2.053900
480.334000,-1.997856
483.334000,-1.945767
486.334000,-1.891402
489.332000,-1.833006
492.332000,-1.771378
495.333000,-1.704133
498.333000,-1.632935
501.333000,-1.562542
504.331000,-1.493169
507.331000,-1.430554
510.331000,-1.368606
513.332000,-1.310387
516.332000,-1.250108
519.332000,-1.191902
522.331000,-1.131055
525.331000,-1.068097
528.329000,-1.003222
531.329000,-0.937480
534.330000,-0.870585
537.330000,-0.823618
540.330000,-0.757254
543.330000,-0.710501
546.328000,-0.614877
549.328000,-0.555254
552.329000,-0.514774
555.329000,-0.458696
558.329000,-0.385336
561.327000,-0.329792
564.327000,-0.276019
567.327000,-0.222427
570.327000,-0.169582
573.328000,-0.120433
576.326000,-0.067513
579.326000,-0.015971
582.326000,0.032723
585.326000,0.051618
588.326000,0.118186
591.327000,0.153360
594.325000,0.220282
597.325000,0.263727
600.325000,0.306774
603.325000,0.344892
606.325000,0.386345
609.323000,0.424328
612.324000,0.463340
615.324000,0.497634
618.324000,0.529799
621.324000,0.561391
624.322000,0.592812
627.322000,0.619555
630.323000,0.649726
633.323000,0.671302
636.323000,0.697148
639.323000,0.723137
642.321000,0.742765
645.321000,0.760045
648.321000,0.784579
651.322000,0.801841
654.322000,0.803211
657.320000,0.801630
660.320000,0.816435
663.320000,0.846089
666.320000,0.855128
669.321000,0.868358
672.319000,0.865180
675.319000,0.859785
678.319000,0.865948
681.319000,0.859697
684.319000,0.855148
687.319000,0.856042
690.319000,0.848091
693.319000,0.837060
696.317000,0.835108
699.317000,0.820497
702.317000,0.809388
705.317000,0.796388
708.318000,0.796732
711.318000,0.767524
714.316000,0.753616
717.316000,0.733373
720.316000,0.716753
723.316000,0.697828
726.316000,0.673158
729.315000,0.651106
732.315000,0.628754
735.315000,0.603316
738.315000,0.577076
741.315000,0.549744
744.313000,0.520376
747.314000,0.489699
750.314000,0.455922
753.314000,0.423729
756.314000,0.389218
759.314000,0.353952
762.312000,0.321225
765.312000,0.287241
768.313000,0.245761
771.312000,0.206851
774.312000,0.166546
777.312000,0.124621
780.312000,0.083270
783.312000,0.041049
786.311000,0.001870
789.311000,-0.044730
792.311000,-0.089443
795.311000,-0.134928
798.310000,-0.176741
801.310000,-0.222155
804.310000,-0.252152
807.311000,-0.312961
810.309000,-0.362614
813.309000,-0.407748
816.309000,-0.454610
819.309000,-0.499296
822.309000,-0.548017
825.308000,-0.598210
828.308000,-0.643790
831.308000,-0.694530
834.308000,-0.748636
837.308000,-0.779513
840.306000,-0.833065
843.306000,-0.893766
846.307000,-0.944112
849.307000,-0.996668
852.306000,-1.046089
855.306000,-1.098107
858.306000,-1.144819
861.305000,-1.190767
864.306000,-1.236404
867.306000,-1.281138
870.306000,-1.323414
873.304000,-1.367175
876.304000,-1.408553
879.304000,-1.450387
882.304000,-1.494498
885.305000,-1.540500
888.303000,-1.587559
891.303000,-1.635039
894.304000,-1.682886
897.302000,-1.728901
900.302000,-1.774604
903.303000,-1.817423
906.302000,-1.855783
909.302000,-1.893374
912.302000,-1.927654
915.302000,-1.960119
918.302000,-1.991918
921.300000,-2.019548
924.301000,-2.048250
927.301000,-2.078587
930.301000,-2.106279
933.301000,-2.137982
936.299000,-2.171164
939.299000,-2.201569
942.300000,-2.235764
945.300000,-2.268314
948.300000,-2.298617
951.300000,-2.329066
954.298000,-2.357241
957.298000,-2.383240
960.298000,-2.404837
963.299000,-2.424207
966.299000,-2.437046
969.297000,-2.457593
972.297000,-2.470065
975.297000,-2.482310
978.297000,-2.494627
981.298000,-2.505124
984.296000,-2.516132
987.296000,-2.518712
990.296000,-2.532612
993.296000,-2.537042
996.296000,-2.536437
999.296000,-2.547094
1002.295000,-2.549718
1005.295000,-2.547668
1008.295000,-2.551676
1011.295000,-2.542154
1014.295000,-2.532609
1017.293000,-2.538252
1020.294000,-2.517206
1023.294000,-2.516115
1026.294000,-2.512124
1029.294000,-2.518324
1032.292000,-2.501004
1035.292000,-2.497139
1038.292000,-2.497584
1041.293000,-2.477405
1044.293000,-2.464460
1047.293000,-2.450933
1050.291000,-2.439345
1053.291000,-2.425142
1056.291000,-2.409392
1059.292000,-2.391759
1062.292000,-2.372396
1065.290000,-2.351649
1068.290000,-2.327801
1071.290000,-2.301207
1074.290000,-2.272176
1077.290000,-2.246299
1080.289000,-2.214314
1083.289000,-2.181849
1086.289000,-2.151454
1089.289000,-2.118735
1092.289000,-2.090356
1095.289000,-2.061287
1098.288000,-2.032725
1101.288000,-2.008153
1104.288000,-1.982080
1107.288000,-1.953660
1110.288000,-1.925309
1113.286000,-1.895757
1116.286000,-1.862983
1119.287000,-1.830600
1122.287000,-1.797190
1125.287000,-1.761023
1128.285000,-1.722055
1131.285000,-1.680711
1134.285000,-1.637860
1137.286000,-1.598746
1140.286000,-1.554828
1143.284000,-1.512832
1146.284000,-1.474775
1149.284000,-1.437632
1152.284000,-1.400201
1155.284000,-1.363429
1158.285000,-1.330410
1161.283000,-1.292380
1164.283000,-1.254214
1167.283000,-1.215912
1170.283000,-1.181228
1173.282000,-1.143436
1176.283000,-1.102727
1179.283000,-1.063270
1182.283000,-1.019349
1185.281000,-0.976716
1188.281000,-0.939543
1191.281000,-0.895092
1194.281000,-0.856028
1197.282000,-0.817734
1200.280000,-0.779041
1203.280000,-0.742884
1206.280000,-0.754211
1209.280000,-0.687456
1212.280000,-0.633972
1215.281000,-0.615952
1218.279000,-0.581070
1221.279000,-0.530472
1224.279000,-0.515219
1227.279000,-0.462452
1230.278000,-0.454464
1233.278000,-0.427540
1236.278000,-0.366329
1239.278000,-0.335945
1242.278000,-0.304296
1245.278000,-0.293904
1248.276000,-0.250306
1251.276000,-0.250918
1254.277000,-0.204600
1257.277000,-0.167821
1260.277000,-0.142662
1263.275000,-0.118872
1266.275000,-0.092017
1269.275000,-0.069699
1272.275000,-0.045073
1275.276000,-0.021685
1278.276000,-0.003818
1281.274000,0.020441
1284.274000,0.022284
1287.274000,0.030925
1290.274000,0.068594
1293.275000,0.088114
1296.273000,0.089498
1299.273000,0.118499
1302.273000,0.127660
1305.273000,0.144719
1308.273000,0.145052
1311.273000,0.152140
1314.272000,0.178346
1317.272000,0.173872
1320.272000,0.179594
1323.272000,0.195921
1326.272000,0.203529
1329.270000,0.192321
1332.271000,0.202193
1335.271000,0.194120
1338.271000,0.204284
1341.271000,0.203036
1344.269000,0.205158
1347.269000,0.194980
1350.270000,0.193059
1353.269000,0.188150
1356.269000,0.178863
1359.269000,0.176741
1362.269000,0.175072
1365.269000,0.164231
1368.267000,0.161617
1371.268000,0.152520
1374.268000,0.139534
1377.267000,0.133181
1380.267000,0.122044
1383.267000,0.104245
1386.267000,0.091830
1389.267000,0.082801
1392.266000,0.065569
1395.266000,0.052682
1398.266000,0.033815
1401.266000,0.019799
1404.265000,-0.000370
1407.265000,-0.019506
1410.265000,-0.033073
1413.266000,-0.057794
1416.264000,-0.076988
1419.264000,-0.097575
1422.264000,-0.120878
1425.264000,-0.140714
1428.264000,-0.160047
1431.264000,-0.183690
1434.264000,-0.207707
1437.263000,-0.231949
1440.263000,-0.258719
1443.263000,-0.282978
1446.263000,-0.306676
1449.261000,-0.334119
1452.262000,-0.360054
1455.262000,-0.387304
1458.262000,-0.414731
1461.262000,-0.441362
1464.260000,-0.467739
1467.260000,-0.491681
1470.261000,-0.518680
1473.261000,-0.547881
1476.261000,-0.576973
1479.261000,-0.606290
1482.259000,-0.634683
1485.259000,-0.664717
1488.259000,-0.695700
1491.260000,-0.724898
1494.260000,-0.755982
1497.258000,-0.770481
1500.258000,-0.805383
1503.258000,-0.844956
1506.258000,-0.879437
1509.258000,-0.909924
1512.258000,-0.940910
1515.258000,-0.971790
1518.258000,-1.002056
1521.256000,-1.035200
1524.256000,-1.064551
1527.256000,-1.093739
1530.257000,-1.123301
1533.257000,-1.152139
1536.255000,-1.178559
1539.256000,-1.206547
1542.256000,-1.231944
1545.254000,-1.258593
1548.255000,-1.283004
1551.254000,-1.307259
1554.255000,-1.331416
1557.255000,-1.356674
1560.253000,-1.377744
1563.253000,-1.402403
1566.253000,-1.424524
1569.254000,-1.443598
1572.254000,-1.465739
1575.252000,-1.489821
1578.252000,-1.513046
1581.253000,-1.534102
1584.252000,-1.557616
1587.253000,-1.579743
1590.253000,-1.602441
1593.251000,-1.621910
1596.251000,-1.646107
1599.251000,-1.666079
1602.251000,-1.685861
1605.251000,-1.701699
1608.250000,-1.720484
1611.250000,-1.739698
1614.250000,-1.754700
1617.250000,-1.767149
1620.250000,-1.782089
1623.250000,-1.797751
1626.249000,-1.809662
1629.249000,-1.819980
1632.249000,-1.829767
1635.249000,-1.842277
1638.249000,-1.851863
1641.247000,-1.857034
1644.247000,-1.861062
1647.248000,-1.867355
1650.248000,-1.870686
1653.248000,-1.875017
1656.246000,-1.873276
1659.246000,-1.881374
1662.246000,-1.861592
1665.247000,-1.873004
1668.247000,-1.886619
1671.247000,-1.884087
1674.245000,-1.882815
1677.245000,-1.859332
1680.245000,-1.850180
1683.245000,-1.867664
1686.246000,-1.864995
1689.244000,-1.837331
1692.244000,-1.841974
1695.244000,-1.825194
1698.244000,-1.818977
1701.244000,-1.813126
1704.243000,-1.804689
1707.243000,-1.799654
1710.243000,-1.783820
1713.243000,-1.774029
1716.243000,-1.760679
1719.243000,-1.751586
1722.241000,-1.736197
1725.242000,-1.719298
1728.241000,-1.703001
1731.241000,-1.684753
1734.241000,-1.670505
1737.241000,-1.650744
1740.241000,-1.632608
1743.242000,-1.617960
1746.240000,-1.594657
1749.240000,-1.573519
1752.240000,-1.554516
1755.240000,-1.537219
1758.240000,-1.513773
1761.240000,-1.495671
1764.239000,-1.478140
1767.239000,-1.453926
1770.239000,-1.433896
1773.239000,-1.412558
1776.237000,-1.395054
1779.237000,-1.373437
1782.238000,-1.351452
1785.238000,-1.331277
1788.238000,-1.312583
1791.236000,-1.288651
1794.236000,-1.268251
1797.236000,-1.247266
1800.236000,-1.224918
1803.237000,-1.205099
1806.237000,-1.181693
1809.235000,-1.158866
1812.235000,-1.140047
1815.235000,-1.111542
1818.235000,-1.086536
1821.236000,-1.067574
1824.234000,-1.038987
1827.234000,-1.013947
1830.234000,-0.989838
1833.234000,-0.965501
1836.234000,-0.940158
1839.234000,-0.913887
1842.233000,-0.888650
1845.233000,-0.867022
1848.233000,-0.841183
1851.233000,-0.815582
1854.233000,-0.792102
1857.231000,-0.768169
1860.232000,-0.745967
1863.232000,-0.752471
1866.232000,-0.716481
1869.232000,-0.677145
1872.230000,-0.655674
1875.230000,-0.634217
1878.230000,-0.615231
1881.231000,-0.594521
1884.231000,-0.575926
1887.231000,-0.550063
1890.229000,-0.534320
1893.229000,-0.520665
1896.229000,-0.510201
1899.230000,-0.480684
1902.230000,-0.463734
1905.228000,-0.469149
1908.228000,-0.449137
1911.228000,-0.435277
1914.228000,-0.405331
1917.228000,-0.378652
1920.227000,-0.364538
1923.227000,-0.343325
1926.227000,-0.327701
1929.227000,-0.322646
1932.227000,-0.306924
1935.225000,-0.305673
1938.226000,-0.280445
1941.227000,-0.275142
1944.225000,-0.265712
1947.225000,-0.247610
1950.225000,-0.249167
1953.225000,-0.254480
1956.225000,-0.253046
1959.225000,-0.246522
1962.225000,-0.233832
1965.225000,-0.218324
1968.223000,-0.189833
1971.223000,-0.210070
1974.223000,-0.189316
1977.224000,-0.194585
1980.224000,-0.197012
1983.224000,-0.179321
1986.223000,-0.180766
1989.223000,-0.163681
1992.222000,-0.160220
1995.222000,-0.173542
1998.223000,-0.190404
2001.221000,-0.189088
2004.221000,-0.187490
2007.221000,-0.194221
2010.221000,-0.191189
2013.221000,-0.193259
2016.220000,-0.184689
2019.220000,-0.201353
2022.220000,-0.208615
2025.220000,-0.213986
2028.220000,-0.220251
2031.218000,-0.218721
2034.218000,-0.229419
2037.219000,-0.236813
2040.219000,-0.243904
2043.218000,-0.245094
2046.218000,-0.246338
2049.218000,-0.262347
2052.218000,-0.277627
2055.219000,-0.288169
2058.217000,-0.299843
2061.217000,-0.306618
2064.217000,-0.317601
2067.217000,-0.331165
2070.217000,-0.339868
2073.215000,-0.355291
2076.216000,-0.370038
2079.216000,-0.382650
2082.215000,-0.396387
2085.215000,-0.407752
2088.215000,-0.423954
2091.215000,-0.436640
2094.216000,-0.454134
2097.214000,-0.465101
2100.214000,-0.460522
2103.214000,-0.479331
2106.214000,-0.511595
2109.214000,-0.530115
2112.212000,-0.545641
2115.213000,-0.562121
2118.213000,-0.577313
2121.213000,-0.598336
2124.213000,-0.615792
2127.211000,-0.632143
2130.211000,-0.640618
2133.212000,-0.652591
2136.212000,-0.681677
2139.212000,-0.702281
2142.212000,-0.721257
2145.210000,-0.738179
2148.210000,-0.753127
2151.210000,-0.757345
2154.211000,-0.796110
2157.211000,-0.809425
2160.211000,-0.831631
2163.209000,-0.850579
2166.209000,-0.869127
2169.209000,-0.886930
2172.210000,-0.907279
2175.210000,-0.926486
2178.209000,-0.945506
2181.209000,-0.962625
2184.207000,-0.979480
2187.207000,-0.998422
2190.207000,-1.017183
2193.208000,-1.034102
2196.208000,-1.050144
2199.208000,-1.068029
2202.206000,-1.085638
2205.207000,-1.102153
2208.205000,-1.116835
2211.206000,-1.129841
2214.206000,-1.148076
2217.206000,-1.158733
2220.206000,-1.172025
2223.206000,-1.189329
2226.204000,-1.202070
2229.204000,-1.213006
2232.205000,-1.221178
2235.205000,-1.240045
2238.205000,-1.249095
2241.203000,-1.260609
2244.203000,-1.270929
2247.203000,-1.281369
2250.204000,-1.290976
2253.204000,-1.297533
2256.202000,-1.309197
2259.202000,-1.316768
2262.202000,-1.324957
2265.202000,-1.332344
2268.202000,-1.338531
2271.203000,-1.344534
2274.201000,-1.352105
2277.201000,-1.361607
2280.201000,-1.365863
2283.201000,-1.373318
2286.201000,-1.373777
2289.200000,-1.377448
2292.200000,-1.382231
2295.200000,-1.387177
2298.199000,-1.390315
2301.199000,-1.395322
2304.199000,-1.383156
2307.199000,-1.381578
2310.199000,-1.392803
2313.199000,-1.395537
2316.199000,-1.377268
2319.199000,-1.391362
2322.197000,-1.403406
2325.197000,-1.391967
2328.198000,-1.379851
2331.198000,-1.401336
2334.198000,-1.395910
2337.196000,-1.375483
2340.196000,-1.390465
2343.195000,-1.373600
2346.195000,-1.372781
2349.196000,-1.364547
2352.196000,-1.375901
2355.196000,-1.361508
2358.196000,-1.366206
2361.194000,-1.342158
2364.194000,-1.345524
2367.195000,-1.343878
2370.195000,-1.331450
2373.195000,-1.319678
2376.193000,-1.319725
2379.193000,-1.306661
2382.194000,-1.292869
2385.192000,-1.300953
2388.193000,-1.280512
2391.193000,-1.278333
2394.193000,-1.280696
2397.193000,-1.253589
2400.191000,-1.245291
2403.192000,-1.242857
2406.193000,-1.232828
2409.191000,-1.214417
2412.191000,-1.207482
2415.191000,-1.214294
2418.191000,-1.189356
2421.191000,-1.184240
2424.189000,-1.159930
2427.190000,-1.147546
2430.190000,-1.142994
2433.189000,-1.126942
2436.189000,-1.116730
2439.189000,-1.104138
2442.189000,-1.091954
2445.190000,-1.078272
2448.189000,-1.065428
2451.189000,-1.055291
2454.189000,-1.040680
2457.187000,-1.025815
2460.187000,-1.008926
2463.187000,-1.009664
2466.188000,-0.991426
2469.188000,-0.970393
2472.186000,-0.961690
2475.186000,-0.941800
2478.186000,-0.927845
2481.186000,-0.927339
2484.187000,-0.901082
2487.187000,-0.883618
2490.185000,-0.882313
2493.185000,-0.875735
2496.185000,-0.863222
2499.184000,-0.827194
2502.184000,-0.835353
2505.185000,-0.808065
2508.185000,-0.790980
2511.185000,-0.777168
2514.183000,-0.764301
2517.183000,-0.765831
2520.183000,-0.740855
2523.184000,-0.748218
2526.184000,-0.744805
2529.182000,-0.719153
2532.182000,-0.687643
2535.182000,-0.678645
2538.182000,-0.671839
2541.182000,-0.661063
2544.181000,-0.648077
2547.181000,-0.642117
2550.181000,-0.626378
2553.181000,-0.621432
2556.181000,-0.619688
2559.179000,-0.607365
2562.180000,-0.589694
2565.180000,-0.601144
2568.180000,-0.574471
2571.180000,-0.565320
2574.180000,-0.558052
2577.178000,-0.555282
2580.179000,-0.540331
2583.178000,-0.544716
2586.178000,-0.537567
2589.178000,-0.531597
2592.178000,-0.515504
2595.177000,-0.507805
2598.177000,-0.494353
2601.178000,-0.503718
2604.178000,-0.484614
2607.178000,-0.482890
2610.176000,-0.474762
2613.176000,-0.491933
2616.176000,-0.475183
2619.176000,-0.464818
2622.177000,-0.470533
2625.175000,-0.473161
2628.175000,-0.475228
2631.175000,-0.472341
2634.175000,-0.468051
2637.175000,-0.452047
2640.173000,-0.467327
2643.174000,-0.445584
2646.174000,-0.452077
2649.174000,-0.463064
2652.174000,-0.456684
2655.174000,-0.450908
2658.172000,-0.450085
2661.173000,-0.466069
2664.173000,-0.467181
2667.172000,-0.447682
2670.172000,-0.461987
2673.172000,-0.471063
2676.172000,-0.462021
2679.171000,-0.469401
2682.171000,-0.474517
2685.171000,-0.476693
2688.170000,-0.478685
2691.170000,-0.485491
2694.170000,-0.489261
2697.170000,-0.498643
2700.171000,-0.478804
2703.171000,-0.502077
2706.169000,-0.509447
2709.169000,-0.515967
2712.169000,-0.518761
2715.169000,-0.525421
2718.169000,-0.536255
2721.168000,-0.537645
2724.168000,-0.545671
2727.168000,-0.552317
2730.168000,-0.559123
2733.168000,-0.564321
2736.166000,-0.574254
2739.167000,-0.583470
2742.167000,-0.589633
2745.167000,-0.590265
2748.167000,-0.610570
2751.167000,-0.607864
2754.165000,-0.626041
2757.165000,-0.634931
2760.166000,-0.633286
2763.166000,-0.650154
2766.166000,-0.654648
2769.164000,-0.666406
2772.164000,-0.675500
2775.164000,-0.687432
2778.165000,-0.696668
2781.165000,-0.704953
2784.163000,-0.717028
2787.163000,-0.724058
2790.163000,-0.734056
2793.163000,-0.744285
2796.163000,-0.742809
2799.162000,-0.764161
2802.162000,-0.773935
2805.162000,-0.785150
2808.162000,-0.793896
2811.162000,-0.799774
2814.162000,-0.811275
2817.161000,-0.825790
2820.161000,-0.833867
2823.161000,-0.842074
2826.161000,-0.854009
2829.161000,-0.863854
2832.159000,-0.873621
2835.159000,-0.883119
2838.160000,-0.882051
2841.160000,-0.905120
2844.160000,-0.914465
2847.160000,-0.923861
2850.158000,-0.929049
2853.158000,-0.941488
2856.158000,-0.952175
2859.158000,-0.959647
2862.158000,-0.967126
2865.158000,-0.971794
2868.158000,-0.982526
2871.158000,-0.993690
2874.156000,-0.998194
2877.157000,-1.005948
2880.157000,-1.010571
2883.157000,-1.017479
2886.157000,-1.031301
2889.155000,-1.036893
2892.155000,-1.045222
2895.156000,-1.048503
2898.156000,-1.048978
2901.156000,-1.040640
2904.154000,-1.070409
2907.154000,-1.077962
2910.154000,-1.081457
2913.154000,-1.087212
2916.155000,-1.089378
2919.153000,-1.092050
2922.153000,-1.102163
2925.153000,-1.100745
2928.153000,-1.083646
2931.153000,-1.111104
2934.154000,-1.115897
2937.152000,-1.119891
2940.152000,-1.117610
2943.152000,-1.128342
2946.152000,-1.126354
2949.152000,-1.128563
2952.150000,-1.125256
2955.151000,-1.121271
2958.151000,-1.128798
2961.151000,-1.110342
2964.151000,-1.123365
2967.151000,-1.133227
2970.149000,-1.121176
2973.150000,-1.115241
2976.150000,-1.128169
2979.150000,-1.128709
2982.150000,-1.132289
2985.148000,-1.123726
2988.148000,-1.109713
2991.148000,-1.128550
2994.149000,-1.126609
2997.149000,-1.100776
3000.147000,-1.116223
3003.147000,-1.111423
3006.147000,-1.096700
3009.147000,-1.110050
3012.148000,-1.087787
3015.148000,-1.090496
3018.146000,-1.086597
3021.146000,-1.077452
3024.146000,-1.080556
3027.146000,-1.074995
3030.146000,-1.064470
3033.145000,-1.076891
3036.145000,-1.081178
3039.145000,-1.057950
3042.145000,-1.064126
3045.145000,-1.042992
3048.143000,-1.052130
3051.144000,-1.035806
3054.144000,-1.033555
3057.144000,-1.013583
3060.143000,-1.011085
3063.143000,-1.015779
3066.143000,-0.995753
3069.143000,-0.988186
3072.143000,-0.989593
3075.143000,-0.986323
3078.143000,-0.972412
3081.141000,-0.970009
3084.141000,-0.960528
3087.141000,-0.953464
3090.142000,-0.944248
3093.142000,-0.925493
3096.140000,-0.921546
3099.140000,-0.929253
3102.140000,-0.911820
3105.140000,-0.910515
3108.140000,-0.896071
3111.140000,-0.883941
3114.140000,-0.889034
3117.140000,-0.862916
3120.138000,-0.868199
3123.138000,-0.841618
3126.138000,-0.836709
3129.139000,-0.826103
3132.139000,-0.836573
3135.139000,-0.818410
3138.137000,-0.810724
3141.137000,-0.798595
3144.137000,-0.806186
3147.137000,-0.776382
3150.138000,-0.771453
3153.136000,-0.774210
3156.136000,-0.752144
3159.136000,-0.749081
3162.136000,-0.739182
3165.136000,-0.750067
3168.135000,-0.726169
3171.135000,-0.715746
3174.135000,-0.710579
3177.135000,-0.699272
3180.135000,-0.712904
3183.135000,-0.695968
3186.133000,-0.690716
3189.134000,-0.685100
3192.134000,-0.676880
3195.134000,-0.676173
3198.134000,-0.665985
3201.132000,-0.657493
3204.132000,-0.662623
3207.134000,-0.643219
3210.132000,-0.629604
3213.132000,-0.649651
3216.132000,-0.629046
3219.132000,-0.638762
3222.132000,-0.616118
3225.130000,-0.629424
3228.131000,-0.609958
3231.131000,-0.624512
3234.131000,-0.601892
3237.131000,-0.615289
3240.129000,-0.586013
3243.129000,-0.595871
3246.130000,-0.602235
3249.130000,-0.575661
3252.130000,-0.596503
3255.129000,-0.587063
3258.129000,-0.565555
3261.129000,-0.590238
3264.127000,-0.579554
3267.128000,-0.570096
3270.129000,-0.580856
3273.127000,-0.558460
3276.127000,-0.582144
3279.127000,-0.559272
3282.126000,-0.586523
3285.127000,-0.579866
3288.127000,-0.562900
3291.127000,-0.567516
3294.127000,-0.574930
3297.125000,-0.552256
3300.125000,-0.547442
3303.125000,-0.556383
3306.126000,-0.568917
3309.126000,-0.588059
3312.124000,-0.587961
3315.124000,-0.576518
3318.124000,-0.561220
3321.124000,-0.589365
3324.125000,-0.585829
3327.125000,-0.590548
3330.123000,-0.582045
3333.123000,-0.566870
3336.122000,-0.599111
3339.122000,-0.598312
3342.122000,-0.602833
3345.123000,-0.603952
3348.123000,-0.608028
3351.121000,-0.608500
3354.121000,-0.604033
3357.121000,-0.624399
3360.121000,-0.625280
3363.122000,-0.628989
3366.122000,-0.636535
3369.120000,-0.637933
3372.120000,-0.615632
3375.120000,-0.637222
3378.120000,-0.642036
3381.120000,-0.645143
3384.119000,-0.629176
3387.119000,-0.656001
3390.119000,-0.661841
3393.119000,-0.672454
3396.119000,-0.672889
3399.119000,-0.682656
3402.118000,-0.688411
3405.118000,-0.692127
3408.118000,-0.700483
3411.118000,-0.707465
3414.118000,-0.710722
3417.116000,-0.717874
3420.116000,-0.720506
3423.117000,-0.728341
3426.116000,-0.733954
3429.116000,-0.741657
3432.116000,-0.751859
3435.116000,-0.747902
3438.116000,-0.761700
3441.115000,-0.762693
3444.115000,-0.775295
3447.115000,-0.777800
3450.115000,-0.786170
3453.115000,-0.788974
3456.113000,-0.799271
3459.113000,-0.801620
3462.114000,-0.809163
3465.114000,-0.815320
3468.114000,-0.824696
3471.114000,-0.832922
3474.113000,-0.834649
3477.113000,-0.834201
3480.112000,-0.847010
3483.112000,-0.849984
3486.112000,-0.861835
3489.112000,-0.856967
3492.112000,-0.871394
3495.112000,-0.876174
3498.110000,-0.877683
3501.111000,-0.889326
3504.111000,-0.897672
3507.111000,-0.899644
3510.110000,-0.912082
3513.110000,-0.908234
3516.110000,-0.921356
3519.111000,-0.925870
3522.109000,-0.925004
3525.109000,-0.933580
3528.109000,-0.941596
3531.109000,-0.946196
3534.109000,-0.951139
3537.107000,-0.955361
3540.108000,-0.960409
3543.108000,-0.957570
3546.108000,-0.970250
3549.108000,-0.968357
3552.106000,-0.976842
3555.106000,-0.971386
3558.107000,-0.978841
3561.107000,-0.979878
3564.107000,-0.989070
3567.105000,-0.981819
3570.105000,-0.992133
3573.105000,-0.990385
3576.105000,-0.996695
3579.106000,-1.006009
3582.106000,-1.006227
3585.106000,-1.004476
3588.104000,-0.986513
3591.104000,-1.007073
3594.104000,-1.007335
3597.105000,-0.987839
3600.103000,-0.998337
3603.104000,-1.004972
3606.104000,-0.989332
3609.102000,-1.010395
3612.102000,-0.997789
3615.102000,-0.998140
3618.103000,-1.005748
3621.103000,-1.003052
3624.101000,-0.993958
3627.101000,-0.988665
3630.101000,-1.003263
3633.101000,-0.984164
3636.102000,-1.000890
3639.102000,-0.978399
3642.100000,-1.005248
3645.100000,-0.993727
3648.100000,-0.975924
3651.100000,-0.984865
3654.100000,-0.971012
3657.099000,-0.993686
3660.099000,-0.974160
3663.099000,-0.976896
3666.099000,-0.977457
3669.099000,-0.955476
3672.097000,-0.964410
3675.098000,-0.961966
3678.098000,-0.951645
3681.098000,-0.960851
3684.098000,-0.963768
3687.098000,-0.945839
3690.096000,-0.954103
3693.096000,-0.927359
3696.097000,-0.922971
3699.097000,-0.939417
3702.097000,-0.920152
3705.095000,-0.916291
3708.095000,-0.909539
3711.095000,-0.918079
3714.096000,-0.901109
3717.096000,-0.915567
3720.094000,-0.893562
3723.094000,-0.880267
3726.095000,-0.885597
3729.093000,-0.879216
3732.093000,-0.872319
3735.094000,-0.867876
3738.094000,-0.855060
3741.094000,-0.862821
3744.092000,-0.846666
3747.092000,-0.839412
3750.092000,-0.834867
3753.093000,-0.829679
3756.093000,-0.834666
3759.093000,-0.833867
3762.091000,-0.807641
3765.091000,-0.824420
3768.091000,-0.800481
3771.091000,-0.796412
3774.092000,-0.808681
3777.090000,-0.788206
3780.090000,-0.800338
3783.090000,-0.777936
3786.090000,-0.769196
3789.090000,-0.764851
3792.089000,-0.777970
3795.089000,-0.749275
3798.089000,-0.755323
3801.089000,-0.749873
3804.089000,-0.748096
3807.089000,-0.751893
3810.087000,-0.748310
3813.088000,-0.744047
3816.088000,-0.747334
3819.088000,-0.739498
3822.087000,-0.707006
3825.087000,-0.697141
3828.087000,-0.704946
3831.088000,-0.709440
3834.086000,-0.684978
3837.086000,-0.705055
3840.086000,-0.677183
3843.086000,-0.686596
3846.086000,-0.672441
3849.084000,-0.680249
3852.085000,-0.657150
3855.085000,-0.659591
3858.085000,-0.648563
3861.085000,-0.667654
3864.083000,-0.641070
3867.083000,-0.634819
3870.084000,-0.653764
3873.084000,-0.634509
3876.084000,-0.623067
3879.084000,-0.635567
3882.082000,-0.635380
3885.082000,-0.614024
3888.082000,-0.628207
3891.083000,-0.620799
3894.083000,-0.612715
3897.081000,-0.604475
3900.081000,-0.599274
3903.081000,-0.611607
3906.081000,-0.617995
3909.082000,-0.594110
3912.080000,-0.602112
3915.080000,-0.613100
3918.080000,-0.587335
3921.080000,-0.603442
3924.080000,-0.592319
3927.080000,-0.609901
3930.079000,-0.589677
3933.079000,-0.602799
3936.079000,-0.586716
3939.079000,-0.588372
3942.079000,-0.601538
3945.077000,-0.581882
3948.078000,-0.586234
3951.078000,-0.601592
3954.078000,-0.597625
3957.078000,-0.577307
3960.076000,-0.589902
3963.076000,-0.598370
3966.076000,-0.596972
3969.077000,-0.596476
3972.077000,-0.604251
3975.077000,-0.584673
3978.075000,-0.603105
3981.075000,-0.598356
3984.075000,-0.598441
3987.075000,-0.601575
3990.076000,-0.604268
3993.074000,-0.601830
3996.074000,-0.608575
3999.074000,-0.599825
4002.074000,-0.615493
4005.074000,-0.618760
4008.073000,-0.624590
4011.073000,-0.619647
4014.073000,-0.619127
4017.073000,-0.606678
4020.073000,-0.633829
4023.073000,-0.627241
4026.071000,-0.637831
4029.072000,-0.634866
4032.072000,-0.620194
4035.072000,-0.640581
4038.072000,-0.646747
4041.070000,-0.647866
4044.070000,-0.636930
4047.072000,-0.657061
4050.070000,-0.658955
4053.070000,-0.664251
4056.070000,-0.667967
4059.070000,-0.671611
4062.070000,-0.661436
4065.068000,-0.674660
4068.069000,-0.673280
4071.069000,-0.680807
4074.068000,-0.671754
4077.068000,-0.694404
4080.068000,-0.686841
4083.067000,-0.707829
4086.068000,-0.710535
4089.068000,-0.713156
4092.067000,-0.720468
4095.067000,-0.720570
4098.067000,-0.723371
4101.067000,-0.724082
4104.065000,-0.732580
4107.066000,-0.737295
4110.066000,-0.727981
4113.066000,-0.740015
4116.066000,-0.750880
4119.064000,-0.761190
4122.064000,-0.763594
4125.065000,-0.751668
4128.065000,-0.752930
4131.065000,-0.778378
4134.065000,-0.783433
4137.063000,-0.789185
4140.063000,-0.793081
4143.063000,-0.796331
4146.064000,-0.802273
4149.063000,-0.802990
4152.063000,-0.808195
4155.063000,-0.809191
4158.063000,-0.821500
4161.062000,-0.823880
4164.063000,-0.833555
4167.063000,-0.824074
4170.062000,-0.835411
4173.062000,-0.842373
4176.060000,-0.852078
4179.060000,-0.846279
4182.061000,-0.862032
4185.060000,-0.860427
4188.061000,-0.871071
4191.061000,-0.865034
4194.060000,-0.876129
4197.060000,-0.869990
4200.059000,-0.881402
4203.059000,-0.867811
4206.060000,-0.893079
4209.058000,-0.897349
4212.058000,-0.898739
4215.058000,-0.904029
4218.057000,-0.908309
4221.057000,-0.907010
4224.058000,-0.892090
4227.058000,-0.920017
4230.058000,-0.900663
4233.056000,-0.920220
4236.056000,-0.910583
4239.056000,-0.921652
4242.057000,-0.928451
4245.057000,-0.911280
4248.055000,-0.932057
4251.055000,-0.928117
4254.055000,-0.914917
4257.055000,-0.926999
4260.055000,-0.940525
4263.056000,-0.928556
4266.054000,-0.947821
4269.054000,-0.945009
4272.054000,-0.947841
4275.054000,-0.954841
4278.054000,-0.946852
4281.053000,-0.925371
4284.054000,-0.946872
4287.054000,-0.955242
4290.052000,-0.953151
4293.052000,-0.946974
4296.052000,-0.930045
4299.052000,-0.947895
4302.053000,-0.926176
4305.051000,-0.924378
4308.051000,-0.952967
4311.051000,-0.949293
4314.051000,-0.925755
4317.051000,-0.945060
4320.050000,-0.920509
4323.050000,-0.917508
4326.050000,-0.936874
4329.050000,-0.920343
4332.049000,-0.934695
4335.049000,-0.908910
4338.049000,-0.923334
4341.050000,-0.908346
4344.048000,-0.925048
4347.048000,-0.895489
4350.048000,-0.905807
4353.048000,-0.910172
4356.048000,-0.891495
4359.047000,-0.907428
4362.047000,-0.882789
4365.047000,-0.887385
4368.047000,-0.870877
4371.047000,-0.882361
4374.047000,-0.873355
4377.045000,-0.869524
4380.046000,-0.861393
4383.046000,-0.860390
4386.046000,-0.871785
4389.046000,-0.842686
4392.044000,-0.841186
4395.045000,-0.836111
4398.046000,-0.829989
4401.044000,-0.838545
4404.044000,-0.819372
4407.044000,-0.834031
4410.044000,-0.806791
4413.044000,-0.822517
4416.042000,-0.799342
4419.044000,-0.809452
4422.044000,-0.800053
4425.043000,-0.782032
4428.043000,-0.776634
4431.043000,-0.784541
4434.041000,-0.763220
4437.042000,-0.776185
4440.042000,-0.766595
4443.042000,-0.757131
4446.042000,-0.768472
4449.040000,-0.745825
4452.040000,-0.737285
4455.040000,-0.739138
4458.040000,-0.751264
4461.040000,-0.745655
4464.040000,-0.741453
4467.040000,-0.736044
4470.040000,-0.722324
4473.038000,-0.697233
4476.039000,-0.698586
4479.039000,-0.692932
4482.039000,-0.685746
4485.039000,-0.707197
4488.037000,-0.680732
4491.037000,-0.674324
4494.037000,-0.676078
4497.038000,-0.687544
4500.038000,-0.664955
4503.036000,-0.679076
4506.036000,-0.653771
4509.036000,-0.653002
4512.036000,-0.652751
4515.037000,-0.671781
4518.037000,-0.640737
4521.035000,-0.655005
4524.035000,-0.655409
4527.035000,-0.636563
4530.034000,-0.650375
4533.034000,-0.624090
4536.035000,-0.643093
4539.035000,-0.625606
4542.035000,-0.644589
4545.033000,-0.621561
4548.033000,-0.639167
4551.033000,-0.619599
4554.034000,-0.620211
4557.034000,-0.628757
4560.032000,-0.624093
4563.032000,-0.615500
4566.032000,-0.630668
4569.032000,-0.622458
4572.032000,-0.619232
4575.031000,-0.629063
4578.031000,-0.615275
4581.031000,-0.622326
4584.031000,-0.598176
4587.031000,-0.601575
4590.030000,-0.621241
4593.031000,-0.610672
4596.031000,-0.593614
4599.029000,-0.614758
4602.029000,-0.612987
4605.029000,-0.597370
4608.029000,-0.588151
4611.029000,-0.605814
4614.030000,-0.607429
4617.028000,-0.602833
4620.028000,-0.620041
4623.028000,-0.596167
4626.028000,-0.601657
4629.027000,-0.617594
4632.028000,-0.597513
4635.028000,-0.615316
4638.028000,-0.624121
4641.026000,-0.628506
4644.026000,-0.613960
4647.026000,-0.600634
4650.026000,-0.616941
4653.027000,-0.636046
4656.025000,-0.626555
4659.025000,-0.608140
4662.025000,-0.607722
4665.025000,-0.629135
4668.025000,-0.619419
4671.024000,-0.623995
4674.024000,-0.640003
4677.024000,-0.640737
4680.024000,-0.642746
4683.024000,-0.637134
4686.024000,-0.641492
4689.022000,-0.641247
4692.023000,-0.629655
4695.023000,-0.654073
4698.022000,-0.659618
4701.022000,-0.640438
4704.022000,-0.646455
4707.022000,-0.665200
4710.023000,-0.645554
4713.021000,-0.658380
4716.021000,-0.664384
4719.021000,-0.669670
4722.021000,-0.660321
4725.021000,-0.651966
4728.019000,-0.677210
4731.020000,-0.673899
4734.020000,-0.683819
4737.020000,-0.682884
4740.020000,-0.696023
4743.018000,-0.696981
4746.018000,-0.700751
4749.019000,-0.700758
4752.019000,-0.703709
4755.019000,-0.704219
4758.019000,-0.713958
4761.017000,-0.712823
4764.017000,-0.720574
4767.017000,-0.710494
4770.018000,-0.700170
4773.018000,-0.721624
4776.016000,-0.726859
4779.016000,-0.729467
4782.016000,-0.729874
4785.016000,-0.739158
4788.017000,-0.724109
4791.015000,-0.716532
4794.015000,-0.738808
4797.015000,-0.741293
4800.015000,-0.723874
4803.015000,-0.752029
4806.015000,-0.751940
4809.014000,-0.758630
4812.014000,-0.737217
4815.014000,-0.730898
4818.014000,-0.754092
4821.014000,-0.757277
4824.012000,-0.753796
4827.013000,-0.755707
4830.013000,-0.757978
4833.013000,-0.778388
4836.013000,-0.779054
4839.011000,-0.777552
4842.011000,-0.782253
4845.011000,-0.785585
4848.012000,-0.787200
4851.012000,-0.785323
4854.012000,-0.786849
4857.010000,-0.785847
4860.010000,-0.792363
4863.010000,-0.775726
4866.011000,-0.788838
4869.011000,-0.799485
4872.009000,-0.779422
4875.009000,-0.799349
4878.009000,-0.800923
4881.009000,-0.796766
4884.009000,-0.808110
4887.010000,-0.790215
4890.008000,-0.802868
4893.008000,-0.812437
4896.008000,-0.794284
4899.008000,-0.820140
4902.008000,-0.822275
4905.007000,-0.819875
4908.007000,-0.824237
4911.007000,-0.832365
4914.007000,-0.832266
4917.007000,-0.825851
4920.005000,-0.826236
4923.005000,-0.827551
4926.006000,-0.804608
4929.006000,-0.826089
4932.006000,-0.813579
4935.004000,-0.831970
4938.004000,-0.813233
4941.004000,-0.829577
4944.005000,-0.824961
4947.005000,-0.820338
4950.005000,-0.838990
4953.003000,-0.821266
4956.003000,-0.840143
4959.003000,-0.826586
4962.003000,-0.838569
4965.004000,-0.843848
4968.002000,-0.833572
4971.002000,-0.832443
4974.003000,-0.836505
4977.001000,-0.843294
4980.001000,-0.846945
4983.002000,-0.837981
4986.002000,-0.836165
4989.002000,-0.838766
4992.000000,-0.839374
4995.000000,-0.834452
4998.000000,-0.846061
5001.000000,-0.836716
5004.001000,-0.842322
5006.999000,-0.834248
5009.999000,-0.841642
5012.999000,-0.832708
5015.998000,-0.833181
5018.998000,-0.843199
5021.999000,-0.828676
5024.999000,-0.819906
5027.998000,-0.818883
5030.998000,-0.826956
5033.998000,-0.841054
5036.998000,-0.829832
5039.996000,-0.810615
5042.997000,-0.819882
5045.997000,-0.833235
5048.997000,-0.806407
5051.997000,-0.819797
5054.995000,-0.812988
5057.995000,-0.824774
5060.996000,-0.804156
5063.996000,-0.820844
5066.996000,-0.807246
5069.996000,-0.799516
5072.994000,-0.816255
5075.994000,-0.793679
5078.994000,-0.802042
5081.995000,-0.789351
5084.995000,-0.784167
5087.993000,-0.804394
5090.993000,-0.783817
5093.993000,-0.799723
5096.993000,-0.780564
5099.994000,-0.783861
5102.994000,-0.762139
5105.992000,-0.780798
5108.992000,-0.780469
5111.992000,-0.776444
5114.992000,-0.769410
5117.992000,-0.780016
5120.991000,-0.755632
5123.991000,-0.775570
5126.991000,-0.771239
5129.991000,-0.743496
5132.991000,-0.765035
5135.989000,-0.747150
5138.990000,-0.761319
5141.990000,-0.743194
5144.990000,-0.734205
5147.990000,-0.742486
5150.988000,-0.745026
5153.988000,-0.745825
5156.988000,-0.745818
5159.989000,-0.743513
5162.989000,-0.720169
5165.989000,-0.715406
5168.987000,-0.730425
5171.987000,-0.715502
5174.987000,-0.721835
5177.988000,-0.709009
5180.988000,-0.709716
5183.986000,-0.717259
5186.986000,-0.717776
5189.986000,-0.705861
5192.986000,-0.686470
5195.986000,-0.712418
5198.985000,-0.697838
5201.985000,-0.684342
5204.985000,-0.693466
5207.985000,-0.687024
5210.985000,-0.697685
5213.985000,-0.670363
5216.983000,-0.694398
5219.984000,-0.673974
5222.984000,-0.663466
5225.984000,-0.670193
5228.984000,-0.657843
5231.982000,-0.678203
5234.982000,-0.669048
5237.983000,-0.649406
5240.983000,-0.646955
5243.983000,-0.672434
5246.981000,-0.656327
5249.981000,-0.650242
5252.981000,-0.656225
5255.981000,-0.641322
5258.982000,-0.653305
5261.982000,-0.637287
5264.980000,-0.636097
5267.980000,-0.646261
5270.980000,-0.649861
5273.980000,-0.635641
5276.981000,-0.649586
5279.979000,-0.626085
5282.980000,-0.630855
5285.980000,-0.644269
5288.978000,-0.625521
5291.978000,-0.636719
5294.978000,-0.641125
5297.979000,-0.623961
5300.979000,-0.640989
5303.977000,-0.619627
5306.977000,-0.639911
5309.977000,-0.636321
5312.977000,-0.630124
5315.978000,-0.633622
5318.978000,-0.634098
5321.976000,-0.615860
5324.977000,-0.637814
5327.975000,-0.632106
5330.975000,-0.626330
5333.975000,-0.639299
5336.976000,-0.638861
5339.976000,-0.642294
5342.976000,-0.630117
5345.974000,-0.617118
5348.974000,-0.644973
5351.973000,-0.629692
5354.974000,-0.630008
5357.974000,-0.642705
5360.974000,-0.628536
5363.974000,-0.635482
5366.972000,-0.643460
5369.972000,-0.628401
5372.972000,-0.646458
5375.973000,-0.629808
5378.973000,-0.650905
5381.973000,-0.638731
5384.971000,-0.643018
5387.971000,-0.650375
5390.971000,-0.650922
5393.972000,-0.655559
5396.972000,-0.642349
5399.970000,-0.666437
5402.970000,-0.651065
5405.970000,-0.645925
5408.970000,-0.665642
5411.970000,-0.668208
5414.969000,-0.678104
5417.969000,-0.673977
5420.969000,-0.670319
5423.969000,-0.675021
5426.969000,-0.669442
5429.969000,-0.673617
5432.968000,-0.675276
5435.968000,-0.663435
5438.968000,-0.683819
5441.968000,-0.678566
5444.968000,-0.688653
5447.966000,-0.696376
5450.966000,-0.683241
5453.967000,-0.696492
5456.967000,-0.706048
5459.966000,-0.694802
5462.966000,-0.706551
5465.966000,-0.685875
5468.966000,-0.706051
5471.966000,-0.716793
5474.966000,-0.700428
5477.966000,-0.702784
5480.964000,-0.719390
5483.964000,-0.720682
5486.964000,-0.724381
5489.964000,-0.719870
5492.965000,-0.725866
5495.963000,-0.731979
5498.963000,-0.729371
5501.963000,-0.715512
5504.963000,-0.729273
5507.963000,-0.727617
5510.962000,-0.732400
5513.962000,-0.733128
5516.962000,-0.728708
5519.962000,-0.752426
5522.962000,-0.757624
5525.962000,-0.758885
5528.960000,-0.745614
5531.961000,-0.750941
5534.961000,-0.755880
5537.961000,-0.756383
5540.961000,-0.770032
5543.959000,-0.749217
5546.959000,-0.764858
5549.960000,-0.769441
5552.960000,-0.761489
5555.960000,-0.771412
5558.958000,-0.766517
5561.958000,-0.774125
5564.958000,-0.766640
5567.958000,-0.755523
5570.959000,-0.774873
5573.959000,-0.778069
5576.957000,-0.764953
5579.957000,-0.786941
5582.957000,-0.782491
5585.957000,-0.785796
5588.958000,-0.764110
5591.956000,-0.786826
5594.956000,-0.791738
5597.956000,-0.770498
5600.956000,-0.791354
5603.956000,-0.796398
5606.955000,-0.779262
5609.956000,-0.793608
5612.956000,-0.799359
5615.954000,-0.791428
5618.954000,-0.777062
5621.954000,-0.785177
5624.954000,-0.800138
5627.955000,-0.792098
5630.953000,-0.783079
5633.953000,-0.799965
5636.953000,-0.795436
5639.953000,-0.785758
5642.953000,-0.802715
5645.953000,-0.789151
5648.952000,-0.805064
5651.952000,-0.803663
5654.952000,-0.787461
5657.952000,-0.804204
5660.952000,-0.800831
5663.950000,-0.783797
5666.951000,-0.805478
5669.951000,-0.792051
5672.951000,-0.792747
5675.951000,-0.799937
5678.949000,-0.793812
5681.949000,-0.802864
5684.949000,-0.791615
5687.950000,-0.786377
5690.950000,-0.800879
5693.950000,-0.783868
5696.948000,-0.800716
5699.948000,-0.782984
5702.948000,-0.786894
5705.949000,-0.802280
5708.949000,-0.795215
5711.947000,-0.777555
5714.947000,-0.795474
5717.947000,-0.774751
5720.947000,-0.795654
5723.947000,-0.773462
5726.946000,-0.789205
5729.946000,-0.771239
5732.946000,-0.789396
5735.946000,-0.773133
5738.946000,-0.761503
5741.946000,-0.760177
5744.945000,-0.781135
5747.945000,-0.764556
5750.945000,-0.778307
5753.945000,-0.782151
5756.944000,-0.758858
5759.944000,-0.771994
5762.944000,-0.776726
5765.945000,-0.752783
5768.943000,-0.764586
5771.943000,-0.744781
5774.943000,-0.739695
5777.943000,-0.760072
5780.943000,-0.749197
5783.942000,-0.762067
5786.942000,-0.744611
5789.942000,-0.744533
5792.942000,-0.751536
5795.942000,-0.729558
5798.940000,-0.752192
5801.940000,-0.752199
5804.941000,-0.728586
5807.941000,-0.738115
5810.941000,-0.720370
5813.941000,-0.714302
5816.939000,-0.737826
5819.939000,-0.715682
5822.940000,-0.729167
5825.940000,-0.723059
5828.940000,-0.707639
5831.938000,-0.716956
5834.938000,-0.704215
5837.938000,-0.704259
5840.938000,-0.696101
5843.939000,-0.714927
5846.937000,-0.702502
5849.937000,-0.695883
5852.937000,-0.703073
5855.937000,-0.701472
5858.937000,-0.688880
5861.938000,-0.706575
5864.936000,-0.686963
5867.936000,-0.670394
5870.936000,-0.691760
5873.936000,-0.685195
5876.936000,-0.669735
5879.935000,-0.669731
5882.936000,-0.680732
5885.936000,-0.680021
5888.934000,-0.683683
5891.934000,-0.687871
5894.934000,-0.664853
5897.934000,-0.676584
5900.935000,-0.658843
5903.933000,-0.667624
5906.933000,-0.676914
5909.933000,-0.654923
5912.933000,-0.677832
5915.933000,-0.670312
5918.931000,-0.646866
5921.932000,-0.672063
5924.932000,-0.668460
5927.932000,-0.648430
5930.932000,-0.671404
5933.932000,-0.653186
5936.930000,-0.657680
5939.931000,-0.670224
5942.931000,-0.657238
5945.931000,-0.655039
5948.931000,-0.662575
5951.929000,-0.647822
5954.929000,-0.669667
5957.929000,-0.663330
5960.929000,-0.654372
5963.929000,-0.644704
5966.929000,-0.660723
5969.929000,-0.663517
5972.929000,-0.647968
5975.927000,-0.668133
5978.928000,-0.669721
5981.928000,-0.667651
5984.928000,-0.661015
5987.928000,-0.660508
5990.926000,-0.667895
5993.926000,-0.663789
5996.926000,-0.652941
5999.927000,-0.671162
6002.927000,-0.647057
6005.927000,-0.669051
6008.925000,-0.662789
6011.925000,-0.649062
6014.925000,-0.667324
6017.926000,-0.672526
6020.926000,-0.668385
6023.924000,-0.669925
6026.924000,-0.676075
6029.925000,-0.659713
6032.923000,-0.679777
6035.924000,-0.654889
6038.924000,-0.670717
6041.924000,-0.688425
6044.924000,-0.680868
6047.922000,-0.686168
6050.922000,-0.696621
6053.922000,-0.684383
6056.923000,-0.686929
6059.923000,-0.696002
6062.921000,-0.682156
6065.921000,-0.695411
6068.921000,-0.702454
6071.921000,-0.700700
6074.921000,-0.708097
6077.922000,-0.705912
6080.920000,-0.714060
6083.920000,-0.711779
6086.920000,-0.718537
6089.920000,-0.720703
6092.920000,-0.701588
6095.919000,-0.699323
6098.919000,-0.725265
6101.919000,-0.723232
6104.919000,-0.728232
6107.919000,-0.727328
6110.919000,-0.732587
6113.917000,-0.729164
6116.918000,-0.732628
6119.918000,-0.732478
6122.918000,-0.721546
6125.918000,-0.748901
6128.916000,-0.750424
6131.917000,-0.755129
6134.916000,-0.760578
6137.916000,-0.761455
6140.916000,-0.761819
6143.916000,-0.752678
6146.916000,-0.763077
6149.916000,-0.767918
6152.914000,-0.763798
6155.915000,-0.743374
6158.915000,-0.765790
6161.915000,-0.763988
6164.915000,-0.761615
6167.913000,-0.776967
6170.913000,-0.771892
6173.914000,-0.782321
6176.914000,-0.783572
6179.914000,-0.787254
6182.914000,-0.783766
6185.912000,-0.792323
6188.912000,-0.785476
6191.912000,-0.781468
6194.913000,-0.791694
6197.913000,-0.798771
6200.911000,-0.791299
6203.911000,-0.790915
6206.911000,-0.802239
6209.911000,-0.796755
6212.912000,-0.778653
6215.910000,-0.798078
6218.910000,-0.801875
6221.910000,-0.802725
6224.910000,-0.810115
6227.909000,-0.804720
6230.909000,-0.811060
6233.910000,-0.808664
6236.910000,-0.788923
6239.908000,-0.808711
6242.908000,-0.799706
6245.908000,-0.783066
6248.908000,-0.798639
6251.909000,-0.810292
6254.907000,-0.803004
6257.907000,-0.801994
6260.907000,-0.802263
6263.907000,-0.809932
6266.907000,-0.802276
6269.907000,-0.796582
6272.906000,-0.816272
6275.906000,-0.820229
6278.906000,-0.807372
6281.906000,-0.798843
6284.905000,-0.807369
6287.905000,-0.791588
6290.906000,-0.792914
6293.906000,-0.785462
6296.904000,-0.803775
6299.904000,-0.791272
6302.904000,-0.792095
6305.904000,-0.791622
6308.904000,-0.785833
6311.903000,-0.803177
6314.903000,-0.795198
6317.903000,-0.794753
6320.903000,-0.787951
6323.903000,-0.785432
6326.901000,-0.779507
6329.902000,-0.793669
6332.902000,-0.796089
6335.902000,-0.771457
6338.902000,-0.796059
6341.902000,-0.784191
6344.901000,-0.769067
6347.901000,-0.792384
6350.900000,-0.787750
6353.900000,-0.761156
6356.900000,-0.786312
6359.900000,-0.775478
6362.900000,-0.764627
6365.900000,-0.783861
6368.899000,-0.758056
6371.900000,-0.772769
6374.898000,-0.753450
6377.898000,-0.767425
6380.898000,-0.765106
6383.898000,-0.739369
6386.898000,-0.761411
6389.899000,-0.741266
6392.897000,-0.763543
6395.897000,-0.751876
6398.896000,-0.745213
6401.896000,-0.756917
6404.896000,-0.733026
6407.897000,-0.756730
6410.897000,-0.727797
6413.897000,-0.722549
6416.895000,-0.746998
6419.895000,-0.723616
6422.895000,-0.740440
6425.894000,-0.718462
6428.895000,-0.735235
6431.895000,-0.716566
6434.895000,-0.735987
6437.894000,-0.718129
6440.894000,-0.709988
6443.894000,-0.710283
6446.892000,-0.728511
6449.893000,-0.708196
6452.893000,-0.705293
6455.893000,-0.700054
6458.893000,-0.722341
6461.893000,-0.719023
6464.891000,-0.718010
6467.892000,-0.699548
6470.892000,-0.719747
6473.892000,-0.695010
6476.892000,-0.698443
6479.890000,-0.711691
6482.890000,-0.692188
6485.890000,-0.691178
6488.891000,-0.687674
6491.891000,-0.680028
6494.889000,-0.695210
6497.889000,-0.693320
6500.889000,-0.691505
6503.889000,-0.697539
6506.890000,-0.676598
6509.890000,-0.675310
6512.888000,-0.700224
6515.889000,-0.693062
6518.887000,-0.678716
6521.887000,-0.690488
6524.887000,-0.676557
6527.888000,-0.682935
6530.888000,-0.690587
6533.888000,-0.673301
6536.886000,-0.672029
6539.886000,-0.688714
6542.886000,-0.668130
6545.887000,-0.668303
6548.887000,-0.669289
6551.885000,-0.661528
6554.885000,-0.675707
6557.885000,-0.675813
6560.885000,-0.662857
6563.885000,-0.678991
6566.884000,-0.670149
6569.884000,-0.660532
6572.884000,-0.673913
6575.884000,-0.649324
6578.884000,-0.650171
6581.884000,-0.665047
6584.883000,-0.680144
6587.883000,-0.660570
6590.883000,-0.674572
6593.883000,-0.661406
6596.883000,-0.674045
6599.881000,-0.671071
6602.881000,-0.652679
6605.882000,-0.652285
6608.882000,-0.671077
6611.882000,-0.663150
6614.880000,-0.677832
6617.880000,-0.660335
6620.880000,-0.662045
6623.881000,-0.669826
6626.881000,-0.681949
6629.881000,-0.679365
6632.879000,-0.675537
6635.879000,-0.681279
6638.879000,-0.687507
6641.879000,-0.680164
6644.880000,-0.679773
6647.878000,-0.685722
6650.878000,-0.675065
6653.878000,-0.673005
6656.878000,-0.684787
6659.878000,-0.694863
6662.878000,-0.689292
6665.878000,-0.689965
6668.878000,-0.673739
6671.876000,-0.695217
6674.876000,-0.700354
6677.876000,-0.689445
6680.876000,-0.693429
6683.877000,-0.699154
6686.876000,-0.688602
6689.876000,-0.703590
6692.876000,-0.700540
6695.874000,-0.682326
6698.874000,-0.708118
6701.875000,-0.707363
6704.875000,-0.712289
6707.875000,-0.707537
6710.873000,-0.716525
6713.874000,-0.702828
6716.874000,-0.709957
6719.872000,-0.720587
6722.873000,-0.723225
6725.873000,-0.722447
6728.873000,-0.704198
6731.873000,-0.726863
6734.872000,-0.720692
6737.872000,-0.730915
6740.873000,-0.730405
6743.871000,-0.722746
6746.871000,-0.736000
6749.871000,-0.727009
6752.871000,-0.717375
6755.871000,-0.739685
6758.871000,-0.722304
6761.871000,-0.723670
6764.870000,-0.739240
6767.870000,-0.720696
6770.870000,-0.724483
6773.870000,-0.747487
6776.868000,-0.731737
6779.869000,-0.744584
6782.869000,-0.755007
6785.869000,-0.732203
6788.869000,-0.756666
6791.867000,-0.745386
6794.867000,-0.740804
6797.867000,-0.763451
6800.868000,-0.763893
6803.868000,-0.768329
6806.866000,-0.755585
6809.866000,-0.746443
6812.866000,-0.764705
6815.866000,-0.746947
6818.867000,-0.770331
6821.867000,-0.774231
6824.865000,-0.754371
6827.866000,-0.762132
6830.864000,-0.768706
6833.864000,-0.773384
6836.864000,-0.773456
6839.865000,-0.753650
6842.865000,-0.779972
6845.865000,-0.765722
6848.864000,-0.759239
6851.864000,-0.781832
6854.864000,-0.768526
6857.863000,-0.758522
6860.863000,-0.776172
6863.863000,-0.782019
6866.863000,-0.781526
6869.863000,-0.782631
6872.861000,-0.761806
6875.861000,-0.775682
6878.862000,-0.767938
6881.862000,-0.776481
6884.862000,-0.763267
6887.860000,-0.780577
6890.860000,-0.766385
6893.860000,-0.778290
6896.861000,-0.766085
6899.861000,-0.782474
6902.859000,-0.771960
6905.859000,-0.779673
6908.859000,-0.759915
6911.859000,-0.761330
6914.859000,-0.755921
6917.860000,-0.778993
6920.858000,-0.775050
6923.858000,-0.769964
6926.858000,-0.782379
6929.858000,-0.770318
6932.858000,-0.755884
6935.857000,-0.782746
6938.857000,-0.780999
6941.857000,-0.769563
6944.857000,-0.758093
6947.857000,-0.755387
6950.855000,-0.755132
6953.855000,-0.781230
6956.856000,-0.771134
6959.856000,-0.755275
6962.856000,-0.765470
6965.856000,-0.755200
6968.854000,-0.759382
6971.854000,-0.769176
6974.855000,-0.746953
6977.855000,-0.764546
6980.855000,-0.741671
6983.853000,-0.742415
6986.853000,-0.739328
6989.853000,-0.760881
6992.853000,-0.743809
6995.854000,-0.767666
6998.854000,-0.748551
7001.852000,-0.740263
7004.852000,-0.741028
7007.852000,-0.741630
7010.852000,-0.735208
7013.853000,-0.758182
7016.852000,-0.734382
7019.852000,-0.747752
7022.850000,-0.743520
7025.850000,-0.738339
7028.851000,-0.733213
7031.849000,-0.755326
7034.850000,-0.727464
7037.850000,-0.746851
7040.850000,-0.721247
7043.850000,-0.719227
7046.848000,-0.735137
7049.848000,-0.725119
7052.849000,-0.744356
7055.848000,-0.725391
7058.848000,-0.725445
7061.848000,-0.736633
7064.848000,-0.716209
7067.848000,-0.731506
7070.846000,-0.710657
7073.847000,-0.730456
7076.847000,-0.726111
7079.847000,-0.710015
7082.847000,-0.727590
7085.847000,-0.724483
7088.845000,-0.702968
7091.846000,-0.726920
7094.846000,-0.707717
7097.846000,-0.723888
7100.846000,-0.698732
7103.844000,-0.718048
7106.844000,-0.700945
7109.844000,-0.719061
7112.845000,-0.714995
7115.845000,-0.715015
7118.843000,-0.693653
7121.843000,-0.716746
7124.843000,-0.695649
7127.843000,-0.715359
7130.844000,-0.688727
7133.844000,-0.709790
7136.842000,-0.707288
7139.842000,-0.680902
7142.842000,-0.688034
7145.842000,-0.687130
7148.842000,-0.701662
7151.843000,-0.680388
7154.841000,-0.685746
7157.841000,-0.682707
7160.841000,-0.692698
7163.841000,-0.684893
7166.839000,-0.702029
7169.840000,-0.676258
7172.840000,-0.677917
7175.840000,-0.672373
7178.840000,-0.681269
7181.840000,-0.693619
7184.838000,-0.670163
7187.839000,-0.669860
7190.840000,-0.674399
7193.838000,-0.694870
7196.838000,-0.681487
7199.838000,-0.671271
7202.838000,-0.689462
7205.837000,-0.679698
